Memory Length,4000,
Trigger Level,1.67899e+00,
Source,CH1,
Probe,10.0X,
Vertical Units,V,
Vertical Scale,2.00000e+00,
Vertical Position,-4.00000e+00,
Horizontal Units,S,
Horizontal Scale,1.00000e-04,
Horizontal Position,4.0000000e-04,
Horizontal Mode,Main,
Sampling Period,4.00000e-07,
Firmware,V1.14,
Time, ,
Mode,Detail,
Waveform Data,
-4.000000e-4,3.28e+0,
-3.996000e-4,3.28e+0,
-3.992000e-4,3.28e+0,
-3.988000e-4,3.28e+0,
-3.984000e-4,3.28e+0,
-3.980000e-4,3.36e+0,
-3.976000e-4,3.36e+0,
-3.972000e-4,3.28e+0,
-3.968000e-4,3.28e+0,
-3.964000e-4,3.36e+0,
-3.960000e-4,3.36e+0,
-3.956000e-4,3.28e+0,
-3.952000e-4,3.28e+0,
-3.948000e-4,3.28e+0,
-3.944000e-4,3.28e+0,
-3.940000e-4,3.36e+0,
-3.936000e-4,3.36e+0,
-3.932000e-4,3.28e+0,
-3.928000e-4,3.28e+0,
-3.924000e-4,3.28e+0,
-3.920000e-4,3.28e+0,
-3.916000e-4,3.28e+0,
-3.912000e-4,3.28e+0,
-3.908000e-4,3.28e+0,
-3.904000e-4,3.28e+0,
-3.900000e-4,3.28e+0,
-3.896000e-4,3.28e+0,
-3.892000e-4,3.28e+0,
-3.888000e-4,3.28e+0,
-3.884000e-4,3.28e+0,
-3.880000e-4,3.28e+0,
-3.876000e-4,3.28e+0,
-3.872000e-4,3.28e+0,
-3.868000e-4,3.28e+0,
-3.864000e-4,3.28e+0,
-3.860000e-4,3.36e+0,
-3.856000e-4,3.36e+0,
-3.852000e-4,3.36e+0,
-3.848000e-4,3.36e+0,
-3.844000e-4,3.28e+0,
-3.840000e-4,3.28e+0,
-3.836000e-4,3.36e+0,
-3.832000e-4,3.36e+0,
-3.828000e-4,3.36e+0,
-3.824000e-4,3.36e+0,
-3.820000e-4,3.36e+0,
-3.816000e-4,3.36e+0,
-3.812000e-4,3.28e+0,
-3.808000e-4,3.28e+0,
-3.804000e-4,3.36e+0,
-3.800000e-4,3.36e+0,
-3.796000e-4,3.28e+0,
-3.792000e-4,3.28e+0,
-3.788000e-4,3.28e+0,
-3.784000e-4,3.28e+0,
-3.780000e-4,3.28e+0,
-3.776000e-4,3.28e+0,
-3.772000e-4,3.36e+0,
-3.768000e-4,3.36e+0,
-3.764000e-4,3.36e+0,
-3.760000e-4,3.36e+0,
-3.756000e-4,3.36e+0,
-3.752000e-4,3.36e+0,
-3.748000e-4,3.36e+0,
-3.744000e-4,3.36e+0,
-3.740000e-4,3.28e+0,
-3.736000e-4,3.28e+0,
-3.732000e-4,3.36e+0,
-3.728000e-4,3.36e+0,
-3.724000e-4,3.36e+0,
-3.720000e-4,3.36e+0,
-3.716000e-4,3.36e+0,
-3.712000e-4,3.36e+0,
-3.708000e-4,3.28e+0,
-3.704000e-4,3.28e+0,
-3.700000e-4,3.36e+0,
-3.696000e-4,3.36e+0,
-3.692000e-4,3.28e+0,
-3.688000e-4,3.28e+0,
-3.684000e-4,3.28e+0,
-3.680000e-4,3.28e+0,
-3.676000e-4,3.36e+0,
-3.672000e-4,3.36e+0,
-3.668000e-4,3.28e+0,
-3.664000e-4,3.28e+0,
-3.660000e-4,3.36e+0,
-3.656000e-4,3.36e+0,
-3.652000e-4,3.28e+0,
-3.648000e-4,3.28e+0,
-3.644000e-4,3.28e+0,
-3.640000e-4,3.28e+0,
-3.636000e-4,3.36e+0,
-3.632000e-4,3.36e+0,
-3.628000e-4,3.36e+0,
-3.624000e-4,3.36e+0,
-3.620000e-4,3.28e+0,
-3.616000e-4,3.28e+0,
-3.612000e-4,3.28e+0,
-3.608000e-4,3.28e+0,
-3.604000e-4,3.36e+0,
-3.600000e-4,3.36e+0,
-3.596000e-4,3.28e+0,
-3.592000e-4,3.28e+0,
-3.588000e-4,3.28e+0,
-3.584000e-4,3.28e+0,
-3.580000e-4,3.36e+0,
-3.576000e-4,3.36e+0,
-3.572000e-4,3.36e+0,
-3.568000e-4,3.36e+0,
-3.564000e-4,3.36e+0,
-3.560000e-4,3.36e+0,
-3.556000e-4,3.28e+0,
-3.552000e-4,3.28e+0,
-3.548000e-4,3.36e+0,
-3.544000e-4,3.36e+0,
-3.540000e-4,3.36e+0,
-3.536000e-4,3.36e+0,
-3.532000e-4,3.28e+0,
-3.528000e-4,3.28e+0,
-3.524000e-4,3.28e+0,
-3.520000e-4,3.28e+0,
-3.516000e-4,3.28e+0,
-3.512000e-4,3.28e+0,
-3.508000e-4,3.28e+0,
-3.504000e-4,3.28e+0,
-3.500000e-4,3.28e+0,
-3.496000e-4,3.28e+0,
-3.492000e-4,3.28e+0,
-3.488000e-4,3.28e+0,
-3.484000e-4,3.28e+0,
-3.480000e-4,3.28e+0,
-3.476000e-4,3.28e+0,
-3.472000e-4,3.28e+0,
-3.468000e-4,3.28e+0,
-3.464000e-4,3.28e+0,
-3.460000e-4,3.28e+0,
-3.456000e-4,3.28e+0,
-3.452000e-4,3.28e+0,
-3.448000e-4,3.28e+0,
-3.444000e-4,3.28e+0,
-3.440000e-4,3.28e+0,
-3.436000e-4,3.28e+0,
-3.432000e-4,3.28e+0,
-3.428000e-4,3.28e+0,
-3.424000e-4,3.28e+0,
-3.420000e-4,3.28e+0,
-3.416000e-4,3.28e+0,
-3.412000e-4,3.28e+0,
-3.408000e-4,3.28e+0,
-3.404000e-4,3.36e+0,
-3.400000e-4,3.36e+0,
-3.396000e-4,3.28e+0,
-3.392000e-4,3.28e+0,
-3.388000e-4,3.28e+0,
-3.384000e-4,3.28e+0,
-3.380000e-4,3.36e+0,
-3.376000e-4,3.36e+0,
-3.372000e-4,3.28e+0,
-3.368000e-4,3.28e+0,
-3.364000e-4,3.36e+0,
-3.360000e-4,3.36e+0,
-3.356000e-4,3.36e+0,
-3.352000e-4,3.36e+0,
-3.348000e-4,3.28e+0,
-3.344000e-4,3.28e+0,
-3.340000e-4,3.28e+0,
-3.336000e-4,3.28e+0,
-3.332000e-4,3.36e+0,
-3.328000e-4,3.36e+0,
-3.324000e-4,3.28e+0,
-3.320000e-4,3.28e+0,
-3.316000e-4,3.28e+0,
-3.312000e-4,3.28e+0,
-3.308000e-4,3.28e+0,
-3.304000e-4,3.28e+0,
-3.300000e-4,3.28e+0,
-3.296000e-4,3.28e+0,
-3.292000e-4,3.28e+0,
-3.288000e-4,3.28e+0,
-3.284000e-4,3.36e+0,
-3.280000e-4,3.36e+0,
-3.276000e-4,3.28e+0,
-3.272000e-4,3.28e+0,
-3.268000e-4,3.28e+0,
-3.264000e-4,3.28e+0,
-3.260000e-4,3.28e+0,
-3.256000e-4,3.28e+0,
-3.252000e-4,3.28e+0,
-3.248000e-4,3.28e+0,
-3.244000e-4,3.28e+0,
-3.240000e-4,3.28e+0,
-3.236000e-4,3.28e+0,
-3.232000e-4,3.28e+0,
-3.228000e-4,3.36e+0,
-3.224000e-4,3.36e+0,
-3.220000e-4,3.28e+0,
-3.216000e-4,3.28e+0,
-3.212000e-4,3.28e+0,
-3.208000e-4,3.28e+0,
-3.204000e-4,3.28e+0,
-3.200000e-4,3.28e+0,
-3.196000e-4,3.28e+0,
-3.192000e-4,3.28e+0,
-3.188000e-4,3.28e+0,
-3.184000e-4,3.28e+0,
-3.180000e-4,3.28e+0,
-3.176000e-4,3.28e+0,
-3.172000e-4,3.36e+0,
-3.168000e-4,3.36e+0,
-3.164000e-4,3.36e+0,
-3.160000e-4,3.36e+0,
-3.156000e-4,3.36e+0,
-3.152000e-4,3.36e+0,
-3.148000e-4,3.36e+0,
-3.144000e-4,3.36e+0,
-3.140000e-4,3.36e+0,
-3.136000e-4,3.36e+0,
-3.132000e-4,3.28e+0,
-3.128000e-4,3.28e+0,
-3.124000e-4,3.28e+0,
-3.120000e-4,3.28e+0,
-3.116000e-4,3.28e+0,
-3.112000e-4,3.28e+0,
-3.108000e-4,3.28e+0,
-3.104000e-4,3.28e+0,
-3.100000e-4,3.28e+0,
-3.096000e-4,3.28e+0,
-3.092000e-4,3.28e+0,
-3.088000e-4,3.28e+0,
-3.084000e-4,3.28e+0,
-3.080000e-4,3.28e+0,
-3.076000e-4,3.28e+0,
-3.072000e-4,3.28e+0,
-3.068000e-4,3.28e+0,
-3.064000e-4,3.28e+0,
-3.060000e-4,3.36e+0,
-3.056000e-4,3.36e+0,
-3.052000e-4,3.28e+0,
-3.048000e-4,3.28e+0,
-3.044000e-4,3.36e+0,
-3.040000e-4,3.36e+0,
-3.036000e-4,3.28e+0,
-3.032000e-4,3.28e+0,
-3.028000e-4,3.36e+0,
-3.024000e-4,3.36e+0,
-3.020000e-4,3.28e+0,
-3.016000e-4,3.28e+0,
-3.012000e-4,3.28e+0,
-3.008000e-4,3.28e+0,
-3.004000e-4,3.28e+0,
-3.000000e-4,3.28e+0,
-2.996000e-4,3.36e+0,
-2.992000e-4,3.36e+0,
-2.988000e-4,3.28e+0,
-2.984000e-4,3.28e+0,
-2.980000e-4,3.28e+0,
-2.976000e-4,3.28e+0,
-2.972000e-4,3.28e+0,
-2.968000e-4,3.28e+0,
-2.964000e-4,3.36e+0,
-2.960000e-4,3.36e+0,
-2.956000e-4,3.36e+0,
-2.952000e-4,3.36e+0,
-2.948000e-4,3.28e+0,
-2.944000e-4,3.28e+0,
-2.940000e-4,3.28e+0,
-2.936000e-4,3.28e+0,
-2.932000e-4,3.20e+0,
-2.928000e-4,3.20e+0,
-2.924000e-4,3.28e+0,
-2.920000e-4,3.28e+0,
-2.916000e-4,3.28e+0,
-2.912000e-4,3.28e+0,
-2.908000e-4,3.28e+0,
-2.904000e-4,3.28e+0,
-2.900000e-4,3.36e+0,
-2.896000e-4,3.36e+0,
-2.892000e-4,3.28e+0,
-2.888000e-4,3.28e+0,
-2.884000e-4,3.28e+0,
-2.880000e-4,3.28e+0,
-2.876000e-4,3.28e+0,
-2.872000e-4,3.28e+0,
-2.868000e-4,3.28e+0,
-2.864000e-4,3.28e+0,
-2.860000e-4,3.36e+0,
-2.856000e-4,3.36e+0,
-2.852000e-4,3.28e+0,
-2.848000e-4,3.28e+0,
-2.844000e-4,3.28e+0,
-2.840000e-4,3.28e+0,
-2.836000e-4,3.28e+0,
-2.832000e-4,3.28e+0,
-2.828000e-4,3.28e+0,
-2.824000e-4,3.28e+0,
-2.820000e-4,3.28e+0,
-2.816000e-4,3.28e+0,
-2.812000e-4,3.28e+0,
-2.808000e-4,3.28e+0,
-2.804000e-4,3.28e+0,
-2.800000e-4,3.28e+0,
-2.796000e-4,3.28e+0,
-2.792000e-4,3.28e+0,
-2.788000e-4,3.36e+0,
-2.784000e-4,3.36e+0,
-2.780000e-4,3.28e+0,
-2.776000e-4,3.28e+0,
-2.772000e-4,3.28e+0,
-2.768000e-4,3.28e+0,
-2.764000e-4,3.28e+0,
-2.760000e-4,3.28e+0,
-2.756000e-4,3.28e+0,
-2.752000e-4,3.28e+0,
-2.748000e-4,3.28e+0,
-2.744000e-4,3.28e+0,
-2.740000e-4,3.28e+0,
-2.736000e-4,3.28e+0,
-2.732000e-4,3.36e+0,
-2.728000e-4,3.36e+0,
-2.724000e-4,3.36e+0,
-2.720000e-4,3.36e+0,
-2.716000e-4,3.28e+0,
-2.712000e-4,3.28e+0,
-2.708000e-4,3.28e+0,
-2.704000e-4,3.28e+0,
-2.700000e-4,3.36e+0,
-2.696000e-4,3.36e+0,
-2.692000e-4,3.36e+0,
-2.688000e-4,3.36e+0,
-2.684000e-4,3.28e+0,
-2.680000e-4,3.28e+0,
-2.676000e-4,3.28e+0,
-2.672000e-4,3.28e+0,
-2.668000e-4,3.28e+0,
-2.664000e-4,3.28e+0,
-2.660000e-4,3.36e+0,
-2.656000e-4,3.36e+0,
-2.652000e-4,3.36e+0,
-2.648000e-4,3.36e+0,
-2.644000e-4,3.28e+0,
-2.640000e-4,3.28e+0,
-2.636000e-4,3.28e+0,
-2.632000e-4,3.28e+0,
-2.628000e-4,3.28e+0,
-2.624000e-4,3.28e+0,
-2.620000e-4,3.28e+0,
-2.616000e-4,3.28e+0,
-2.612000e-4,3.36e+0,
-2.608000e-4,3.36e+0,
-2.604000e-4,3.28e+0,
-2.600000e-4,3.28e+0,
-2.596000e-4,3.20e+0,
-2.592000e-4,3.20e+0,
-2.588000e-4,3.20e+0,
-2.584000e-4,3.20e+0,
-2.580000e-4,3.28e+0,
-2.576000e-4,3.28e+0,
-2.572000e-4,3.36e+0,
-2.568000e-4,3.36e+0,
-2.564000e-4,3.28e+0,
-2.560000e-4,3.28e+0,
-2.556000e-4,3.36e+0,
-2.552000e-4,3.36e+0,
-2.548000e-4,3.28e+0,
-2.544000e-4,3.28e+0,
-2.540000e-4,3.36e+0,
-2.536000e-4,3.36e+0,
-2.532000e-4,3.28e+0,
-2.528000e-4,3.28e+0,
-2.524000e-4,3.36e+0,
-2.520000e-4,3.36e+0,
-2.516000e-4,3.36e+0,
-2.512000e-4,3.36e+0,
-2.508000e-4,3.28e+0,
-2.504000e-4,3.28e+0,
-2.500000e-4,3.36e+0,
-2.496000e-4,3.36e+0,
-2.492000e-4,3.28e+0,
-2.488000e-4,3.28e+0,
-2.484000e-4,3.36e+0,
-2.480000e-4,3.36e+0,
-2.476000e-4,3.36e+0,
-2.472000e-4,3.36e+0,
-2.468000e-4,3.20e+0,
-2.464000e-4,3.20e+0,
-2.460000e-4,3.28e+0,
-2.456000e-4,3.28e+0,
-2.452000e-4,3.28e+0,
-2.448000e-4,3.28e+0,
-2.444000e-4,3.20e+0,
-2.440000e-4,3.20e+0,
-2.436000e-4,3.28e+0,
-2.432000e-4,3.28e+0,
-2.428000e-4,3.28e+0,
-2.424000e-4,3.28e+0,
-2.420000e-4,3.28e+0,
-2.416000e-4,3.28e+0,
-2.412000e-4,3.28e+0,
-2.408000e-4,3.28e+0,
-2.404000e-4,3.28e+0,
-2.400000e-4,3.28e+0,
-2.396000e-4,3.28e+0,
-2.392000e-4,3.28e+0,
-2.388000e-4,3.28e+0,
-2.384000e-4,3.28e+0,
-2.380000e-4,3.28e+0,
-2.376000e-4,3.28e+0,
-2.372000e-4,3.28e+0,
-2.368000e-4,3.28e+0,
-2.364000e-4,3.36e+0,
-2.360000e-4,3.36e+0,
-2.356000e-4,3.28e+0,
-2.352000e-4,3.28e+0,
-2.348000e-4,3.28e+0,
-2.344000e-4,3.28e+0,
-2.340000e-4,3.36e+0,
-2.336000e-4,3.36e+0,
-2.332000e-4,3.28e+0,
-2.328000e-4,3.28e+0,
-2.324000e-4,3.28e+0,
-2.320000e-4,3.28e+0,
-2.316000e-4,3.28e+0,
-2.312000e-4,3.28e+0,
-2.308000e-4,3.36e+0,
-2.304000e-4,3.36e+0,
-2.300000e-4,3.36e+0,
-2.296000e-4,3.36e+0,
-2.292000e-4,3.28e+0,
-2.288000e-4,3.28e+0,
-2.284000e-4,3.28e+0,
-2.280000e-4,3.28e+0,
-2.276000e-4,3.28e+0,
-2.272000e-4,3.28e+0,
-2.268000e-4,3.28e+0,
-2.264000e-4,3.28e+0,
-2.260000e-4,3.28e+0,
-2.256000e-4,3.28e+0,
-2.252000e-4,3.36e+0,
-2.248000e-4,3.36e+0,
-2.244000e-4,3.36e+0,
-2.240000e-4,3.36e+0,
-2.236000e-4,3.28e+0,
-2.232000e-4,3.28e+0,
-2.228000e-4,3.36e+0,
-2.224000e-4,3.36e+0,
-2.220000e-4,3.36e+0,
-2.216000e-4,3.36e+0,
-2.212000e-4,3.36e+0,
-2.208000e-4,3.36e+0,
-2.204000e-4,3.36e+0,
-2.200000e-4,3.36e+0,
-2.196000e-4,3.28e+0,
-2.192000e-4,3.28e+0,
-2.188000e-4,3.28e+0,
-2.184000e-4,3.28e+0,
-2.180000e-4,3.36e+0,
-2.176000e-4,3.36e+0,
-2.172000e-4,3.28e+0,
-2.168000e-4,3.28e+0,
-2.164000e-4,3.28e+0,
-2.160000e-4,3.28e+0,
-2.156000e-4,3.28e+0,
-2.152000e-4,3.28e+0,
-2.148000e-4,3.36e+0,
-2.144000e-4,3.36e+0,
-2.140000e-4,3.28e+0,
-2.136000e-4,3.28e+0,
-2.132000e-4,3.28e+0,
-2.128000e-4,3.28e+0,
-2.124000e-4,3.28e+0,
-2.120000e-4,3.28e+0,
-2.116000e-4,3.36e+0,
-2.112000e-4,3.36e+0,
-2.108000e-4,3.36e+0,
-2.104000e-4,3.36e+0,
-2.100000e-4,3.36e+0,
-2.096000e-4,3.36e+0,
-2.092000e-4,3.36e+0,
-2.088000e-4,3.36e+0,
-2.084000e-4,3.36e+0,
-2.080000e-4,3.36e+0,
-2.076000e-4,3.28e+0,
-2.072000e-4,3.28e+0,
-2.068000e-4,3.28e+0,
-2.064000e-4,3.28e+0,
-2.060000e-4,3.36e+0,
-2.056000e-4,3.36e+0,
-2.052000e-4,3.36e+0,
-2.048000e-4,3.36e+0,
-2.044000e-4,3.28e+0,
-2.040000e-4,3.28e+0,
-2.036000e-4,3.36e+0,
-2.032000e-4,3.36e+0,
-2.028000e-4,3.28e+0,
-2.024000e-4,3.28e+0,
-2.020000e-4,3.36e+0,
-2.016000e-4,3.36e+0,
-2.012000e-4,3.28e+0,
-2.008000e-4,3.28e+0,
-2.004000e-4,3.36e+0,
-2.000000e-4,3.36e+0,
-1.996000e-4,3.28e+0,
-1.992000e-4,3.28e+0,
-1.988000e-4,3.28e+0,
-1.984000e-4,3.28e+0,
-1.980000e-4,3.36e+0,
-1.976000e-4,3.36e+0,
-1.972000e-4,3.28e+0,
-1.968000e-4,3.28e+0,
-1.964000e-4,3.36e+0,
-1.960000e-4,3.36e+0,
-1.956000e-4,3.28e+0,
-1.952000e-4,3.28e+0,
-1.948000e-4,3.28e+0,
-1.944000e-4,3.28e+0,
-1.940000e-4,3.36e+0,
-1.936000e-4,3.36e+0,
-1.932000e-4,3.28e+0,
-1.928000e-4,3.28e+0,
-1.924000e-4,3.36e+0,
-1.920000e-4,3.36e+0,
-1.916000e-4,3.28e+0,
-1.912000e-4,3.28e+0,
-1.908000e-4,3.28e+0,
-1.904000e-4,3.28e+0,
-1.900000e-4,3.28e+0,
-1.896000e-4,3.28e+0,
-1.892000e-4,3.28e+0,
-1.888000e-4,3.28e+0,
-1.884000e-4,3.36e+0,
-1.880000e-4,3.36e+0,
-1.876000e-4,3.36e+0,
-1.872000e-4,3.36e+0,
-1.868000e-4,3.28e+0,
-1.864000e-4,3.28e+0,
-1.860000e-4,3.28e+0,
-1.856000e-4,3.28e+0,
-1.852000e-4,3.28e+0,
-1.848000e-4,3.28e+0,
-1.844000e-4,3.28e+0,
-1.840000e-4,3.28e+0,
-1.836000e-4,3.36e+0,
-1.832000e-4,3.36e+0,
-1.828000e-4,3.28e+0,
-1.824000e-4,3.28e+0,
-1.820000e-4,3.36e+0,
-1.816000e-4,3.36e+0,
-1.812000e-4,3.28e+0,
-1.808000e-4,3.28e+0,
-1.804000e-4,3.36e+0,
-1.800000e-4,3.36e+0,
-1.796000e-4,3.28e+0,
-1.792000e-4,3.28e+0,
-1.788000e-4,3.36e+0,
-1.784000e-4,3.36e+0,
-1.780000e-4,3.36e+0,
-1.776000e-4,3.36e+0,
-1.772000e-4,3.28e+0,
-1.768000e-4,3.28e+0,
-1.764000e-4,3.36e+0,
-1.760000e-4,3.36e+0,
-1.756000e-4,3.28e+0,
-1.752000e-4,3.28e+0,
-1.748000e-4,3.28e+0,
-1.744000e-4,3.28e+0,
-1.740000e-4,3.28e+0,
-1.736000e-4,3.28e+0,
-1.732000e-4,3.28e+0,
-1.728000e-4,3.28e+0,
-1.724000e-4,3.28e+0,
-1.720000e-4,3.28e+0,
-1.716000e-4,3.28e+0,
-1.712000e-4,3.28e+0,
-1.708000e-4,3.36e+0,
-1.704000e-4,3.36e+0,
-1.700000e-4,3.36e+0,
-1.696000e-4,3.36e+0,
-1.692000e-4,3.28e+0,
-1.688000e-4,3.28e+0,
-1.684000e-4,3.28e+0,
-1.680000e-4,3.28e+0,
-1.676000e-4,3.36e+0,
-1.672000e-4,3.36e+0,
-1.668000e-4,3.36e+0,
-1.664000e-4,3.36e+0,
-1.660000e-4,3.28e+0,
-1.656000e-4,3.28e+0,
-1.652000e-4,3.28e+0,
-1.648000e-4,3.28e+0,
-1.644000e-4,3.28e+0,
-1.640000e-4,3.28e+0,
-1.636000e-4,3.36e+0,
-1.632000e-4,3.36e+0,
-1.628000e-4,3.36e+0,
-1.624000e-4,3.36e+0,
-1.620000e-4,3.28e+0,
-1.616000e-4,3.28e+0,
-1.612000e-4,3.28e+0,
-1.608000e-4,3.28e+0,
-1.604000e-4,3.28e+0,
-1.600000e-4,3.28e+0,
-1.596000e-4,3.28e+0,
-1.592000e-4,3.28e+0,
-1.588000e-4,3.28e+0,
-1.584000e-4,3.28e+0,
-1.580000e-4,3.28e+0,
-1.576000e-4,3.28e+0,
-1.572000e-4,3.28e+0,
-1.568000e-4,3.28e+0,
-1.564000e-4,3.36e+0,
-1.560000e-4,3.36e+0,
-1.556000e-4,3.28e+0,
-1.552000e-4,3.28e+0,
-1.548000e-4,3.28e+0,
-1.544000e-4,3.28e+0,
-1.540000e-4,3.28e+0,
-1.536000e-4,3.28e+0,
-1.532000e-4,3.36e+0,
-1.528000e-4,3.36e+0,
-1.524000e-4,3.28e+0,
-1.520000e-4,3.28e+0,
-1.516000e-4,3.28e+0,
-1.512000e-4,3.28e+0,
-1.508000e-4,3.28e+0,
-1.504000e-4,3.28e+0,
-1.500000e-4,3.28e+0,
-1.496000e-4,3.28e+0,
-1.492000e-4,3.36e+0,
-1.488000e-4,3.36e+0,
-1.484000e-4,3.28e+0,
-1.480000e-4,3.28e+0,
-1.476000e-4,3.20e+0,
-1.472000e-4,3.20e+0,
-1.468000e-4,3.28e+0,
-1.464000e-4,3.28e+0,
-1.460000e-4,3.28e+0,
-1.456000e-4,3.28e+0,
-1.452000e-4,3.28e+0,
-1.448000e-4,3.28e+0,
-1.444000e-4,3.28e+0,
-1.440000e-4,3.28e+0,
-1.436000e-4,3.28e+0,
-1.432000e-4,3.28e+0,
-1.428000e-4,3.36e+0,
-1.424000e-4,3.36e+0,
-1.420000e-4,3.36e+0,
-1.416000e-4,3.36e+0,
-1.412000e-4,3.28e+0,
-1.408000e-4,3.28e+0,
-1.404000e-4,3.28e+0,
-1.400000e-4,3.28e+0,
-1.396000e-4,3.36e+0,
-1.392000e-4,3.36e+0,
-1.388000e-4,3.28e+0,
-1.384000e-4,3.28e+0,
-1.380000e-4,3.28e+0,
-1.376000e-4,3.28e+0,
-1.372000e-4,3.28e+0,
-1.368000e-4,3.28e+0,
-1.364000e-4,3.28e+0,
-1.360000e-4,3.28e+0,
-1.356000e-4,3.28e+0,
-1.352000e-4,3.28e+0,
-1.348000e-4,3.36e+0,
-1.344000e-4,3.36e+0,
-1.340000e-4,3.36e+0,
-1.336000e-4,3.36e+0,
-1.332000e-4,3.36e+0,
-1.328000e-4,3.36e+0,
-1.324000e-4,3.36e+0,
-1.320000e-4,3.36e+0,
-1.316000e-4,3.28e+0,
-1.312000e-4,3.28e+0,
-1.308000e-4,3.28e+0,
-1.304000e-4,3.28e+0,
-1.300000e-4,3.28e+0,
-1.296000e-4,3.28e+0,
-1.292000e-4,3.28e+0,
-1.288000e-4,3.28e+0,
-1.284000e-4,3.36e+0,
-1.280000e-4,3.36e+0,
-1.276000e-4,3.36e+0,
-1.272000e-4,3.36e+0,
-1.268000e-4,3.28e+0,
-1.264000e-4,3.28e+0,
-1.260000e-4,3.28e+0,
-1.256000e-4,3.28e+0,
-1.252000e-4,3.36e+0,
-1.248000e-4,3.36e+0,
-1.244000e-4,3.36e+0,
-1.240000e-4,3.36e+0,
-1.236000e-4,3.36e+0,
-1.232000e-4,3.36e+0,
-1.228000e-4,3.36e+0,
-1.224000e-4,3.36e+0,
-1.220000e-4,3.36e+0,
-1.216000e-4,3.36e+0,
-1.212000e-4,3.36e+0,
-1.208000e-4,3.36e+0,
-1.204000e-4,3.28e+0,
-1.200000e-4,3.28e+0,
-1.196000e-4,3.36e+0,
-1.192000e-4,3.36e+0,
-1.188000e-4,3.36e+0,
-1.184000e-4,3.36e+0,
-1.180000e-4,3.36e+0,
-1.176000e-4,3.36e+0,
-1.172000e-4,3.28e+0,
-1.168000e-4,3.28e+0,
-1.164000e-4,3.28e+0,
-1.160000e-4,3.28e+0,
-1.156000e-4,3.28e+0,
-1.152000e-4,3.28e+0,
-1.148000e-4,3.36e+0,
-1.144000e-4,3.36e+0,
-1.140000e-4,3.36e+0,
-1.136000e-4,3.36e+0,
-1.132000e-4,3.28e+0,
-1.128000e-4,3.28e+0,
-1.124000e-4,3.28e+0,
-1.120000e-4,3.28e+0,
-1.116000e-4,3.28e+0,
-1.112000e-4,3.28e+0,
-1.108000e-4,3.28e+0,
-1.104000e-4,3.28e+0,
-1.100000e-4,3.28e+0,
-1.096000e-4,3.28e+0,
-1.092000e-4,3.28e+0,
-1.088000e-4,3.28e+0,
-1.084000e-4,3.28e+0,
-1.080000e-4,3.28e+0,
-1.076000e-4,3.36e+0,
-1.072000e-4,3.36e+0,
-1.068000e-4,3.28e+0,
-1.064000e-4,3.28e+0,
-1.060000e-4,3.28e+0,
-1.056000e-4,3.28e+0,
-1.052000e-4,3.28e+0,
-1.048000e-4,3.28e+0,
-1.044000e-4,3.36e+0,
-1.040000e-4,3.36e+0,
-1.036000e-4,3.36e+0,
-1.032000e-4,3.36e+0,
-1.028000e-4,3.36e+0,
-1.024000e-4,3.36e+0,
-1.020000e-4,3.36e+0,
-1.016000e-4,3.36e+0,
-1.012000e-4,3.36e+0,
-1.008000e-4,3.36e+0,
-1.004000e-4,3.36e+0,
-1.000000e-4,3.36e+0,
-9.960000e-5,3.36e+0,
-9.920000e-5,3.36e+0,
-9.880000e-5,3.36e+0,
-9.840000e-5,3.36e+0,
-9.800000e-5,3.28e+0,
-9.760000e-5,3.28e+0,
-9.720000e-5,3.28e+0,
-9.680000e-5,3.28e+0,
-9.640000e-5,3.28e+0,
-9.600000e-5,3.28e+0,
-9.560000e-5,3.36e+0,
-9.520000e-5,3.36e+0,
-9.480000e-5,3.28e+0,
-9.440000e-5,3.28e+0,
-9.400000e-5,3.28e+0,
-9.360000e-5,3.28e+0,
-9.320000e-5,3.28e+0,
-9.280000e-5,3.28e+0,
-9.240000e-5,3.28e+0,
-9.200000e-5,3.28e+0,
-9.160000e-5,3.28e+0,
-9.120000e-5,3.28e+0,
-9.080000e-5,3.28e+0,
-9.040000e-5,3.28e+0,
-9.000000e-5,3.28e+0,
-8.960000e-5,3.28e+0,
-8.920000e-5,3.28e+0,
-8.880000e-5,3.28e+0,
-8.840000e-5,3.28e+0,
-8.800000e-5,3.28e+0,
-8.760000e-5,3.28e+0,
-8.720000e-5,3.28e+0,
-8.680000e-5,3.28e+0,
-8.640000e-5,3.28e+0,
-8.600000e-5,3.28e+0,
-8.560000e-5,3.28e+0,
-8.520000e-5,3.28e+0,
-8.480000e-5,3.28e+0,
-8.440000e-5,3.28e+0,
-8.400000e-5,3.28e+0,
-8.360000e-5,3.36e+0,
-8.320000e-5,3.36e+0,
-8.280000e-5,3.36e+0,
-8.240000e-5,3.36e+0,
-8.200000e-5,3.36e+0,
-8.160000e-5,3.36e+0,
-8.120000e-5,3.36e+0,
-8.080000e-5,3.36e+0,
-8.040000e-5,3.36e+0,
-8.000000e-5,3.36e+0,
-7.960000e-5,3.28e+0,
-7.920000e-5,3.28e+0,
-7.880000e-5,3.28e+0,
-7.840000e-5,3.28e+0,
-7.800000e-5,3.28e+0,
-7.760000e-5,3.28e+0,
-7.720000e-5,3.28e+0,
-7.680000e-5,3.28e+0,
-7.640000e-5,3.36e+0,
-7.600000e-5,3.36e+0,
-7.560000e-5,3.28e+0,
-7.520000e-5,3.28e+0,
-7.480000e-5,3.36e+0,
-7.440000e-5,3.36e+0,
-7.400000e-5,3.36e+0,
-7.360000e-5,3.36e+0,
-7.320000e-5,3.36e+0,
-7.280000e-5,3.36e+0,
-7.240000e-5,3.28e+0,
-7.200000e-5,3.28e+0,
-7.160000e-5,3.28e+0,
-7.120000e-5,3.28e+0,
-7.080000e-5,3.28e+0,
-7.040000e-5,3.28e+0,
-7.000000e-5,3.28e+0,
-6.960000e-5,3.28e+0,
-6.920000e-5,3.28e+0,
-6.880000e-5,3.28e+0,
-6.840000e-5,3.28e+0,
-6.800000e-5,3.28e+0,
-6.760000e-5,3.36e+0,
-6.720000e-5,3.36e+0,
-6.680000e-5,3.36e+0,
-6.640000e-5,3.36e+0,
-6.600000e-5,3.28e+0,
-6.560000e-5,3.28e+0,
-6.520000e-5,3.28e+0,
-6.480000e-5,3.28e+0,
-6.440000e-5,3.36e+0,
-6.400000e-5,3.36e+0,
-6.360000e-5,3.28e+0,
-6.320000e-5,3.28e+0,
-6.280000e-5,3.28e+0,
-6.240000e-5,3.28e+0,
-6.200000e-5,3.28e+0,
-6.160000e-5,3.28e+0,
-6.120000e-5,3.28e+0,
-6.080000e-5,3.28e+0,
-6.040000e-5,3.36e+0,
-6.000000e-5,3.36e+0,
-5.960000e-5,3.28e+0,
-5.920000e-5,3.28e+0,
-5.880000e-5,3.28e+0,
-5.840000e-5,3.28e+0,
-5.800000e-5,3.36e+0,
-5.760000e-5,3.36e+0,
-5.720000e-5,3.28e+0,
-5.680000e-5,3.28e+0,
-5.640000e-5,3.36e+0,
-5.600000e-5,3.36e+0,
-5.560000e-5,3.28e+0,
-5.520000e-5,3.28e+0,
-5.480000e-5,3.36e+0,
-5.440000e-5,3.36e+0,
-5.400000e-5,3.36e+0,
-5.360000e-5,3.36e+0,
-5.320000e-5,3.36e+0,
-5.280000e-5,3.36e+0,
-5.240000e-5,3.28e+0,
-5.200000e-5,3.28e+0,
-5.160000e-5,3.28e+0,
-5.120000e-5,3.28e+0,
-5.080000e-5,3.36e+0,
-5.040000e-5,3.36e+0,
-5.000000e-5,3.28e+0,
-4.960000e-5,3.28e+0,
-4.920000e-5,3.36e+0,
-4.880000e-5,3.36e+0,
-4.840000e-5,3.28e+0,
-4.800000e-5,3.28e+0,
-4.760000e-5,3.28e+0,
-4.720000e-5,3.28e+0,
-4.680000e-5,3.36e+0,
-4.640000e-5,3.36e+0,
-4.600000e-5,3.28e+0,
-4.560000e-5,3.28e+0,
-4.520000e-5,3.28e+0,
-4.480000e-5,3.28e+0,
-4.440000e-5,3.28e+0,
-4.400000e-5,3.28e+0,
-4.360000e-5,3.36e+0,
-4.320000e-5,3.36e+0,
-4.280000e-5,3.28e+0,
-4.240000e-5,3.28e+0,
-4.200000e-5,3.36e+0,
-4.160000e-5,3.36e+0,
-4.120000e-5,3.28e+0,
-4.080000e-5,3.28e+0,
-4.040000e-5,3.28e+0,
-4.000000e-5,3.28e+0,
-3.960000e-5,3.36e+0,
-3.920000e-5,3.36e+0,
-3.880000e-5,3.36e+0,
-3.840000e-5,3.36e+0,
-3.800000e-5,3.28e+0,
-3.760000e-5,3.28e+0,
-3.720000e-5,3.36e+0,
-3.680000e-5,3.36e+0,
-3.640000e-5,3.36e+0,
-3.600000e-5,3.36e+0,
-3.560000e-5,3.28e+0,
-3.520000e-5,3.28e+0,
-3.480000e-5,3.36e+0,
-3.440000e-5,3.36e+0,
-3.400000e-5,3.36e+0,
-3.360000e-5,3.36e+0,
-3.320000e-5,3.28e+0,
-3.280000e-5,3.28e+0,
-3.240000e-5,3.28e+0,
-3.200000e-5,3.28e+0,
-3.160000e-5,3.28e+0,
-3.120000e-5,3.28e+0,
-3.080000e-5,3.36e+0,
-3.040000e-5,3.36e+0,
-3.000000e-5,3.28e+0,
-2.960000e-5,3.28e+0,
-2.920000e-5,3.36e+0,
-2.880000e-5,-1.28e+0,
-2.840000e-5,8.00e-2,
-2.800000e-5,8.00e-2,
-2.760000e-5,0.00e+0,
-2.720000e-5,0.00e+0,
-2.680000e-5,0.00e+0,
-2.640000e-5,0.00e+0,
-2.600000e-5,8.00e-2,
-2.560000e-5,8.00e-2,
-2.520000e-5,8.00e-2,
-2.480000e-5,8.00e-2,
-2.440000e-5,8.00e-2,
-2.400000e-5,8.00e-2,
-2.360000e-5,0.00e+0,
-2.320000e-5,0.00e+0,
-2.280000e-5,0.00e+0,
-2.240000e-5,0.00e+0,
-2.200000e-5,8.00e-2,
-2.160000e-5,8.00e-2,
-2.120000e-5,8.00e-2,
-2.080000e-5,8.00e-2,
-2.040000e-5,8.00e-2,
-2.000000e-5,8.00e-2,
-1.960000e-5,-8.00e-2,
-1.920000e-5,-8.00e-2,
-1.880000e-5,0.00e+0,
-1.840000e-5,0.00e+0,
-1.800000e-5,8.00e-2,
-1.760000e-5,8.00e-2,
-1.720000e-5,8.00e-2,
-1.680000e-5,8.00e-2,
-1.640000e-5,-8.00e-2,
-1.600000e-5,-8.00e-2,
-1.560000e-5,8.00e-2,
-1.520000e-5,8.00e-2,
-1.480000e-5,0.00e+0,
-1.440000e-5,0.00e+0,
-1.400000e-5,0.00e+0,
-1.360000e-5,0.00e+0,
-1.320000e-5,0.00e+0,
-1.280000e-5,0.00e+0,
-1.240000e-5,8.00e-2,
-1.200000e-5,8.00e-2,
-1.160000e-5,8.00e-2,
-1.120000e-5,8.00e-2,
-1.080000e-5,0.00e+0,
-1.040000e-5,0.00e+0,
-1.000000e-5,0.00e+0,
-9.600000e-6,0.00e+0,
-9.200000e-6,0.00e+0,
-8.800000e-6,0.00e+0,
-8.400000e-6,0.00e+0,
-8.000000e-6,0.00e+0,
-7.600000e-6,8.00e-2,
-7.200000e-6,8.00e-2,
-6.800000e-6,-8.00e-2,
-6.400000e-6,-8.00e-2,
-6.000000e-6,8.00e-2,
-5.600000e-6,8.00e-2,
-5.200000e-6,0.00e+0,
-4.800000e-6,0.00e+0,
-4.400000e-6,8.00e-2,
-4.000000e-6,8.00e-2,
-3.600000e-6,0.00e+0,
-3.200000e-6,0.00e+0,
-2.800000e-6,8.00e-2,
-2.400000e-6,8.00e-2,
-2.000000e-6,-8.00e-2,
-1.600000e-6,-8.00e-2,
-1.200000e-6,0.00e+0,
-8.000000e-7,0.00e+0,
-4.000000e-7,0.00e+0,
6.345229e-18,0.00e+0,
4.000000e-7,0.00e+0,
8.000000e-7,0.00e+0,
1.200000e-6,0.00e+0,
1.600000e-6,0.00e+0,
2.000000e-6,8.00e-2,
2.400000e-6,8.00e-2,
2.800000e-6,0.00e+0,
3.200000e-6,0.00e+0,
3.600000e-6,8.00e-2,
4.000000e-6,8.00e-2,
4.400000e-6,8.00e-2,
4.800000e-6,8.00e-2,
5.200000e-6,0.00e+0,
5.600000e-6,0.00e+0,
6.000000e-6,6.40e-1,
6.400000e-6,3.20e+0,
6.800000e-6,3.12e+0,
7.200000e-6,3.12e+0,
7.600000e-6,3.36e+0,
8.000000e-6,3.36e+0,
8.400000e-6,3.28e+0,
8.800000e-6,3.28e+0,
9.200000e-6,3.28e+0,
9.600000e-6,3.28e+0,
1.000000e-5,3.28e+0,
1.040000e-5,3.28e+0,
1.080000e-5,3.28e+0,
1.120000e-5,3.28e+0,
1.160000e-5,3.28e+0,
1.200000e-5,3.28e+0,
1.240000e-5,3.28e+0,
1.280000e-5,3.28e+0,
1.320000e-5,3.28e+0,
1.360000e-5,3.28e+0,
1.400000e-5,3.36e+0,
1.440000e-5,3.36e+0,
1.480000e-5,3.28e+0,
1.520000e-5,3.28e+0,
1.560000e-5,3.28e+0,
1.600000e-5,3.28e+0,
1.640000e-5,3.36e+0,
1.680000e-5,3.36e+0,
1.720000e-5,3.28e+0,
1.760000e-5,3.28e+0,
1.800000e-5,3.28e+0,
1.840000e-5,3.28e+0,
1.880000e-5,3.36e+0,
1.920000e-5,3.36e+0,
1.960000e-5,3.12e+0,
2.000000e-5,3.12e+0,
2.040000e-5,3.28e+0,
2.080000e-5,3.28e+0,
2.120000e-5,3.28e+0,
2.160000e-5,3.28e+0,
2.200000e-5,3.36e+0,
2.240000e-5,3.36e+0,
2.280000e-5,3.28e+0,
2.320000e-5,3.28e+0,
2.360000e-5,3.36e+0,
2.400000e-5,3.36e+0,
2.440000e-5,3.28e+0,
2.480000e-5,3.28e+0,
2.520000e-5,3.28e+0,
2.560000e-5,3.28e+0,
2.600000e-5,3.28e+0,
2.640000e-5,3.28e+0,
2.680000e-5,3.36e+0,
2.720000e-5,3.36e+0,
2.760000e-5,3.28e+0,
2.800000e-5,3.28e+0,
2.840000e-5,3.28e+0,
2.880000e-5,3.28e+0,
2.920000e-5,3.28e+0,
2.960000e-5,3.28e+0,
3.000000e-5,3.36e+0,
3.040000e-5,3.36e+0,
3.080000e-5,3.28e+0,
3.120000e-5,3.28e+0,
3.160000e-5,3.28e+0,
3.200000e-5,3.28e+0,
3.240000e-5,3.36e+0,
3.280000e-5,-1.52e+0,
3.320000e-5,-8.00e-2,
3.360000e-5,-8.00e-2,
3.400000e-5,0.00e+0,
3.440000e-5,0.00e+0,
3.480000e-5,8.00e-2,
3.520000e-5,8.00e-2,
3.560000e-5,0.00e+0,
3.600000e-5,0.00e+0,
3.640000e-5,8.00e-2,
3.680000e-5,8.00e-2,
3.720000e-5,8.00e-2,
3.760000e-5,8.00e-2,
3.800000e-5,0.00e+0,
3.840000e-5,0.00e+0,
3.880000e-5,-8.00e-2,
3.920000e-5,-8.00e-2,
3.960000e-5,-8.00e-2,
4.000000e-5,-8.00e-2,
4.040000e-5,0.00e+0,
4.080000e-5,0.00e+0,
4.120000e-5,0.00e+0,
4.160000e-5,0.00e+0,
4.200000e-5,-8.00e-2,
4.240000e-5,-8.00e-2,
4.280000e-5,0.00e+0,
4.320000e-5,0.00e+0,
4.360000e-5,-8.00e-2,
4.400000e-5,-8.00e-2,
4.440000e-5,0.00e+0,
4.480000e-5,0.00e+0,
4.520000e-5,0.00e+0,
4.560000e-5,0.00e+0,
4.600000e-5,0.00e+0,
4.640000e-5,2.88e+0,
4.680000e-5,2.96e+0,
4.720000e-5,2.96e+0,
4.760000e-5,3.36e+0,
4.800000e-5,3.36e+0,
4.840000e-5,3.28e+0,
4.880000e-5,3.28e+0,
4.920000e-5,3.36e+0,
4.960000e-5,3.36e+0,
5.000000e-5,3.28e+0,
5.040000e-5,3.28e+0,
5.080000e-5,3.28e+0,
5.120000e-5,3.28e+0,
5.160000e-5,3.28e+0,
5.200000e-5,3.28e+0,
5.240000e-5,3.36e+0,
5.280000e-5,3.36e+0,
5.320000e-5,3.36e+0,
5.360000e-5,3.36e+0,
5.400000e-5,3.28e+0,
5.440000e-5,3.28e+0,
5.480000e-5,3.28e+0,
5.520000e-5,3.28e+0,
5.560000e-5,3.28e+0,
5.600000e-5,3.28e+0,
5.640000e-5,3.28e+0,
5.680000e-5,3.28e+0,
5.720000e-5,3.28e+0,
5.760000e-5,3.28e+0,
5.800000e-5,3.28e+0,
5.840000e-5,3.28e+0,
5.880000e-5,3.28e+0,
5.920000e-5,3.28e+0,
5.960000e-5,3.28e+0,
6.000000e-5,3.28e+0,
6.040000e-5,3.36e+0,
6.080000e-5,3.36e+0,
6.120000e-5,3.28e+0,
6.160000e-5,3.28e+0,
6.200000e-5,3.28e+0,
6.240000e-5,3.28e+0,
6.280000e-5,3.20e+0,
6.320000e-5,3.20e+0,
6.360000e-5,3.28e+0,
6.400000e-5,3.28e+0,
6.440000e-5,3.28e+0,
6.480000e-5,3.28e+0,
6.520000e-5,3.28e+0,
6.560000e-5,3.28e+0,
6.600000e-5,3.36e+0,
6.640000e-5,3.36e+0,
6.680000e-5,3.28e+0,
6.720000e-5,3.28e+0,
6.760000e-5,3.28e+0,
6.800000e-5,3.28e+0,
6.840000e-5,3.28e+0,
6.880000e-5,3.28e+0,
6.920000e-5,3.28e+0,
6.960000e-5,3.28e+0,
7.000000e-5,3.28e+0,
7.040000e-5,3.28e+0,
7.080000e-5,3.28e+0,
7.120000e-5,3.28e+0,
7.160000e-5,3.28e+0,
7.200000e-5,3.28e+0,
7.240000e-5,3.36e+0,
7.280000e-5,3.36e+0,
7.320000e-5,3.20e+0,
7.360000e-5,-1.36e+0,
7.400000e-5,8.00e-2,
7.440000e-5,8.00e-2,
7.480000e-5,0.00e+0,
7.520000e-5,0.00e+0,
7.560000e-5,8.00e-2,
7.600000e-5,8.00e-2,
7.640000e-5,-8.00e-2,
7.680000e-5,-8.00e-2,
7.720000e-5,0.00e+0,
7.760000e-5,0.00e+0,
7.800000e-5,0.00e+0,
7.840000e-5,0.00e+0,
7.880000e-5,8.00e-2,
7.920000e-5,8.00e-2,
7.960000e-5,0.00e+0,
8.000000e-5,0.00e+0,
8.040000e-5,0.00e+0,
8.080000e-5,0.00e+0,
8.120000e-5,0.00e+0,
8.160000e-5,0.00e+0,
8.200000e-5,8.00e-2,
8.240000e-5,8.00e-2,
8.280000e-5,-8.00e-2,
8.320000e-5,-8.00e-2,
8.360000e-5,0.00e+0,
8.400000e-5,0.00e+0,
8.440000e-5,0.00e+0,
8.480000e-5,0.00e+0,
8.520000e-5,0.00e+0,
8.560000e-5,0.00e+0,
8.600000e-5,-8.00e-2,
8.640000e-5,-8.00e-2,
8.680000e-5,0.00e+0,
8.720000e-5,0.00e+0,
8.760000e-5,-8.00e-2,
8.800000e-5,-8.00e-2,
8.840000e-5,0.00e+0,
8.880000e-5,0.00e+0,
8.920000e-5,0.00e+0,
8.960000e-5,0.00e+0,
9.000000e-5,0.00e+0,
9.040000e-5,0.00e+0,
9.080000e-5,-8.00e-2,
9.120000e-5,-8.00e-2,
9.160000e-5,8.00e-2,
9.200000e-5,8.00e-2,
9.240000e-5,-8.00e-2,
9.280000e-5,-8.00e-2,
9.320000e-5,0.00e+0,
9.360000e-5,0.00e+0,
9.400000e-5,0.00e+0,
9.440000e-5,0.00e+0,
9.480000e-5,8.00e-2,
9.520000e-5,8.00e-2,
9.560000e-5,0.00e+0,
9.600000e-5,0.00e+0,
9.640000e-5,0.00e+0,
9.680000e-5,0.00e+0,
9.720000e-5,0.00e+0,
9.760000e-5,0.00e+0,
9.800000e-5,0.00e+0,
9.840000e-5,0.00e+0,
9.880000e-5,0.00e+0,
9.920000e-5,0.00e+0,
9.960000e-5,8.00e-2,
1.000000e-4,8.00e-2,
1.004000e-4,-8.00e-2,
1.008000e-4,-8.00e-2,
1.012000e-4,8.00e-2,
1.016000e-4,8.00e-2,
1.020000e-4,0.00e+0,
1.024000e-4,0.00e+0,
1.028000e-4,0.00e+0,
1.032000e-4,0.00e+0,
1.036000e-4,-8.00e-2,
1.040000e-4,-8.00e-2,
1.044000e-4,0.00e+0,
1.048000e-4,0.00e+0,
1.052000e-4,0.00e+0,
1.056000e-4,0.00e+0,
1.060000e-4,8.00e-2,
1.064000e-4,8.00e-2,
1.068000e-4,8.00e-2,
1.072000e-4,8.00e-2,
1.076000e-4,-8.00e-2,
1.080000e-4,-8.00e-2,
1.084000e-4,0.00e+0,
1.088000e-4,0.00e+0,
1.092000e-4,0.00e+0,
1.096000e-4,0.00e+0,
1.100000e-4,-8.00e-2,
1.104000e-4,-8.00e-2,
1.108000e-4,8.00e-2,
1.112000e-4,8.00e-2,
1.116000e-4,0.00e+0,
1.120000e-4,0.00e+0,
1.124000e-4,8.00e-2,
1.128000e-4,8.00e-2,
1.132000e-4,8.00e-2,
1.136000e-4,3.04e+0,
1.140000e-4,3.04e+0,
1.144000e-4,3.04e+0,
1.148000e-4,3.36e+0,
1.152000e-4,3.36e+0,
1.156000e-4,3.28e+0,
1.160000e-4,3.28e+0,
1.164000e-4,3.28e+0,
1.168000e-4,3.28e+0,
1.172000e-4,3.28e+0,
1.176000e-4,3.28e+0,
1.180000e-4,3.28e+0,
1.184000e-4,3.28e+0,
1.188000e-4,3.28e+0,
1.192000e-4,3.28e+0,
1.196000e-4,3.28e+0,
1.200000e-4,3.28e+0,
1.204000e-4,3.20e+0,
1.208000e-4,3.20e+0,
1.212000e-4,3.20e+0,
1.216000e-4,3.20e+0,
1.220000e-4,3.28e+0,
1.224000e-4,3.28e+0,
1.228000e-4,3.28e+0,
1.232000e-4,3.28e+0,
1.236000e-4,3.28e+0,
1.240000e-4,3.28e+0,
1.244000e-4,3.28e+0,
1.248000e-4,3.28e+0,
1.252000e-4,3.28e+0,
1.256000e-4,3.28e+0,
1.260000e-4,3.28e+0,
1.264000e-4,3.28e+0,
1.268000e-4,3.28e+0,
1.272000e-4,-1.28e+0,
1.276000e-4,8.00e-2,
1.280000e-4,8.00e-2,
1.284000e-4,0.00e+0,
1.288000e-4,0.00e+0,
1.292000e-4,0.00e+0,
1.296000e-4,0.00e+0,
1.300000e-4,0.00e+0,
1.304000e-4,0.00e+0,
1.308000e-4,0.00e+0,
1.312000e-4,0.00e+0,
1.316000e-4,0.00e+0,
1.320000e-4,0.00e+0,
1.324000e-4,0.00e+0,
1.328000e-4,0.00e+0,
1.332000e-4,0.00e+0,
1.336000e-4,0.00e+0,
1.340000e-4,0.00e+0,
1.344000e-4,0.00e+0,
1.348000e-4,-8.00e-2,
1.352000e-4,-8.00e-2,
1.356000e-4,0.00e+0,
1.360000e-4,0.00e+0,
1.364000e-4,0.00e+0,
1.368000e-4,0.00e+0,
1.372000e-4,8.00e-2,
1.376000e-4,8.00e-2,
1.380000e-4,-8.00e-2,
1.384000e-4,-8.00e-2,
1.388000e-4,8.00e-2,
1.392000e-4,8.00e-2,
1.396000e-4,0.00e+0,
1.400000e-4,0.00e+0,
1.404000e-4,-8.00e-2,
1.408000e-4,3.28e+0,
1.412000e-4,3.20e+0,
1.416000e-4,3.20e+0,
1.420000e-4,3.28e+0,
1.424000e-4,3.28e+0,
1.428000e-4,3.28e+0,
1.432000e-4,3.28e+0,
1.436000e-4,3.36e+0,
1.440000e-4,3.36e+0,
1.444000e-4,3.28e+0,
1.448000e-4,3.28e+0,
1.452000e-4,3.28e+0,
1.456000e-4,3.28e+0,
1.460000e-4,3.28e+0,
1.464000e-4,3.28e+0,
1.468000e-4,3.36e+0,
1.472000e-4,3.36e+0,
1.476000e-4,3.28e+0,
1.480000e-4,3.28e+0,
1.484000e-4,3.28e+0,
1.488000e-4,3.28e+0,
1.492000e-4,3.28e+0,
1.496000e-4,3.28e+0,
1.500000e-4,3.28e+0,
1.504000e-4,3.28e+0,
1.508000e-4,3.28e+0,
1.512000e-4,3.28e+0,
1.516000e-4,3.28e+0,
1.520000e-4,3.28e+0,
1.524000e-4,3.28e+0,
1.528000e-4,3.28e+0,
1.532000e-4,3.36e+0,
1.536000e-4,3.36e+0,
1.540000e-4,3.28e+0,
1.544000e-4,3.28e+0,
1.548000e-4,3.36e+0,
1.552000e-4,3.36e+0,
1.556000e-4,3.28e+0,
1.560000e-4,3.28e+0,
1.564000e-4,3.28e+0,
1.568000e-4,3.28e+0,
1.572000e-4,3.36e+0,
1.576000e-4,3.36e+0,
1.580000e-4,3.36e+0,
1.584000e-4,3.36e+0,
1.588000e-4,3.28e+0,
1.592000e-4,3.28e+0,
1.596000e-4,3.36e+0,
1.600000e-4,3.36e+0,
1.604000e-4,3.36e+0,
1.608000e-4,3.36e+0,
1.612000e-4,3.28e+0,
1.616000e-4,3.28e+0,
1.620000e-4,3.36e+0,
1.624000e-4,3.36e+0,
1.628000e-4,3.36e+0,
1.632000e-4,3.36e+0,
1.636000e-4,3.28e+0,
1.640000e-4,3.28e+0,
1.644000e-4,3.28e+0,
1.648000e-4,3.28e+0,
1.652000e-4,3.28e+0,
1.656000e-4,3.28e+0,
1.660000e-4,3.28e+0,
1.664000e-4,3.28e+0,
1.668000e-4,3.28e+0,
1.672000e-4,3.28e+0,
1.676000e-4,3.28e+0,
1.680000e-4,3.28e+0,
1.684000e-4,3.28e+0,
1.688000e-4,3.28e+0,
1.692000e-4,3.28e+0,
1.696000e-4,3.28e+0,
1.700000e-4,3.28e+0,
1.704000e-4,3.28e+0,
1.708000e-4,3.36e+0,
1.712000e-4,3.36e+0,
1.716000e-4,3.28e+0,
1.720000e-4,3.28e+0,
1.724000e-4,3.28e+0,
1.728000e-4,3.28e+0,
1.732000e-4,3.28e+0,
1.736000e-4,3.28e+0,
1.740000e-4,3.36e+0,
1.744000e-4,3.36e+0,
1.748000e-4,3.28e+0,
1.752000e-4,3.28e+0,
1.756000e-4,3.28e+0,
1.760000e-4,3.28e+0,
1.764000e-4,3.28e+0,
1.768000e-4,3.28e+0,
1.772000e-4,3.28e+0,
1.776000e-4,3.28e+0,
1.780000e-4,3.28e+0,
1.784000e-4,3.28e+0,
1.788000e-4,3.36e+0,
1.792000e-4,3.36e+0,
1.796000e-4,3.36e+0,
1.800000e-4,3.36e+0,
1.804000e-4,3.36e+0,
1.808000e-4,-1.52e+0,
1.812000e-4,-8.00e-2,
1.816000e-4,-8.00e-2,
1.820000e-4,0.00e+0,
1.824000e-4,0.00e+0,
1.828000e-4,0.00e+0,
1.832000e-4,0.00e+0,
1.836000e-4,8.00e-2,
1.840000e-4,8.00e-2,
1.844000e-4,0.00e+0,
1.848000e-4,0.00e+0,
1.852000e-4,0.00e+0,
1.856000e-4,0.00e+0,
1.860000e-4,0.00e+0,
1.864000e-4,0.00e+0,
1.868000e-4,0.00e+0,
1.872000e-4,0.00e+0,
1.876000e-4,0.00e+0,
1.880000e-4,0.00e+0,
1.884000e-4,8.00e-2,
1.888000e-4,8.00e-2,
1.892000e-4,0.00e+0,
1.896000e-4,0.00e+0,
1.900000e-4,0.00e+0,
1.904000e-4,0.00e+0,
1.908000e-4,0.00e+0,
1.912000e-4,0.00e+0,
1.916000e-4,0.00e+0,
1.920000e-4,0.00e+0,
1.924000e-4,8.00e-2,
1.928000e-4,8.00e-2,
1.932000e-4,0.00e+0,
1.936000e-4,0.00e+0,
1.940000e-4,-8.00e-2,
1.944000e-4,-8.00e-2,
1.948000e-4,-8.00e-2,
1.952000e-4,-8.00e-2,
1.956000e-4,0.00e+0,
1.960000e-4,0.00e+0,
1.964000e-4,8.00e-2,
1.968000e-4,8.00e-2,
1.972000e-4,0.00e+0,
1.976000e-4,0.00e+0,
1.980000e-4,8.00e-2,
1.984000e-4,8.00e-2,
1.988000e-4,0.00e+0,
1.992000e-4,0.00e+0,
1.996000e-4,0.00e+0,
2.000000e-4,0.00e+0,
2.004000e-4,0.00e+0,
2.008000e-4,0.00e+0,
2.012000e-4,0.00e+0,
2.016000e-4,0.00e+0,
2.020000e-4,0.00e+0,
2.024000e-4,0.00e+0,
2.028000e-4,8.00e-2,
2.032000e-4,8.00e-2,
2.036000e-4,0.00e+0,
2.040000e-4,0.00e+0,
2.044000e-4,8.00e-2,
2.048000e-4,8.00e-2,
2.052000e-4,8.00e-2,
2.056000e-4,8.00e-2,
2.060000e-4,0.00e+0,
2.064000e-4,0.00e+0,
2.068000e-4,0.00e+0,
2.072000e-4,0.00e+0,
2.076000e-4,-8.00e-2,
2.080000e-4,3.12e+0,
2.084000e-4,3.12e+0,
2.088000e-4,3.12e+0,
2.092000e-4,3.28e+0,
2.096000e-4,3.28e+0,
2.100000e-4,3.28e+0,
2.104000e-4,3.28e+0,
2.108000e-4,3.20e+0,
2.112000e-4,3.20e+0,
2.116000e-4,3.36e+0,
2.120000e-4,3.36e+0,
2.124000e-4,3.28e+0,
2.128000e-4,3.28e+0,
2.132000e-4,3.28e+0,
2.136000e-4,3.28e+0,
2.140000e-4,3.28e+0,
2.144000e-4,3.28e+0,
2.148000e-4,3.28e+0,
2.152000e-4,3.28e+0,
2.156000e-4,3.28e+0,
2.160000e-4,3.28e+0,
2.164000e-4,3.28e+0,
2.168000e-4,3.28e+0,
2.172000e-4,3.28e+0,
2.176000e-4,3.28e+0,
2.180000e-4,3.36e+0,
2.184000e-4,3.36e+0,
2.188000e-4,3.28e+0,
2.192000e-4,3.28e+0,
2.196000e-4,3.28e+0,
2.200000e-4,3.28e+0,
2.204000e-4,3.20e+0,
2.208000e-4,3.20e+0,
2.212000e-4,3.20e+0,
2.216000e-4,-1.60e+0,
2.220000e-4,-8.00e-2,
2.224000e-4,-8.00e-2,
2.228000e-4,0.00e+0,
2.232000e-4,0.00e+0,
2.236000e-4,0.00e+0,
2.240000e-4,0.00e+0,
2.244000e-4,0.00e+0,
2.248000e-4,0.00e+0,
2.252000e-4,8.00e-2,
2.256000e-4,8.00e-2,
2.260000e-4,8.00e-2,
2.264000e-4,8.00e-2,
2.268000e-4,8.00e-2,
2.272000e-4,8.00e-2,
2.276000e-4,0.00e+0,
2.280000e-4,0.00e+0,
2.284000e-4,0.00e+0,
2.288000e-4,0.00e+0,
2.292000e-4,8.00e-2,
2.296000e-4,8.00e-2,
2.300000e-4,0.00e+0,
2.304000e-4,0.00e+0,
2.308000e-4,0.00e+0,
2.312000e-4,0.00e+0,
2.316000e-4,0.00e+0,
2.320000e-4,0.00e+0,
2.324000e-4,8.00e-2,
2.328000e-4,8.00e-2,
2.332000e-4,0.00e+0,
2.336000e-4,0.00e+0,
2.340000e-4,-8.00e-2,
2.344000e-4,-8.00e-2,
2.348000e-4,8.00e-2,
2.352000e-4,8.00e-2,
2.356000e-4,0.00e+0,
2.360000e-4,0.00e+0,
2.364000e-4,8.00e-2,
2.368000e-4,8.00e-2,
2.372000e-4,8.00e-2,
2.376000e-4,8.00e-2,
2.380000e-4,0.00e+0,
2.384000e-4,0.00e+0,
2.388000e-4,0.00e+0,
2.392000e-4,0.00e+0,
2.396000e-4,8.00e-2,
2.400000e-4,8.00e-2,
2.404000e-4,0.00e+0,
2.408000e-4,0.00e+0,
2.412000e-4,-8.00e-2,
2.416000e-4,-8.00e-2,
2.420000e-4,0.00e+0,
2.424000e-4,0.00e+0,
2.428000e-4,0.00e+0,
2.432000e-4,0.00e+0,
2.436000e-4,8.00e-2,
2.440000e-4,8.00e-2,
2.444000e-4,0.00e+0,
2.448000e-4,0.00e+0,
2.452000e-4,0.00e+0,
2.456000e-4,0.00e+0,
2.460000e-4,0.00e+0,
2.464000e-4,0.00e+0,
2.468000e-4,-8.00e-2,
2.472000e-4,-8.00e-2,
2.476000e-4,-8.00e-2,
2.480000e-4,2.80e+0,
2.484000e-4,2.80e+0,
2.488000e-4,2.80e+0,
2.492000e-4,3.28e+0,
2.496000e-4,3.28e+0,
2.500000e-4,3.28e+0,
2.504000e-4,3.28e+0,
2.508000e-4,3.28e+0,
2.512000e-4,3.28e+0,
2.516000e-4,3.20e+0,
2.520000e-4,3.20e+0,
2.524000e-4,3.28e+0,
2.528000e-4,3.28e+0,
2.532000e-4,3.28e+0,
2.536000e-4,3.28e+0,
2.540000e-4,3.36e+0,
2.544000e-4,3.36e+0,
2.548000e-4,3.36e+0,
2.552000e-4,3.36e+0,
2.556000e-4,3.28e+0,
2.560000e-4,3.28e+0,
2.564000e-4,3.28e+0,
2.568000e-4,3.28e+0,
2.572000e-4,3.28e+0,
2.576000e-4,3.28e+0,
2.580000e-4,3.28e+0,
2.584000e-4,3.28e+0,
2.588000e-4,3.28e+0,
2.592000e-4,3.28e+0,
2.596000e-4,3.28e+0,
2.600000e-4,3.28e+0,
2.604000e-4,3.28e+0,
2.608000e-4,3.28e+0,
2.612000e-4,3.28e+0,
2.616000e-4,-1.44e+0,
2.620000e-4,-8.00e-2,
2.624000e-4,-8.00e-2,
2.628000e-4,0.00e+0,
2.632000e-4,0.00e+0,
2.636000e-4,-8.00e-2,
2.640000e-4,-8.00e-2,
2.644000e-4,0.00e+0,
2.648000e-4,0.00e+0,
2.652000e-4,8.00e-2,
2.656000e-4,8.00e-2,
2.660000e-4,0.00e+0,
2.664000e-4,0.00e+0,
2.668000e-4,0.00e+0,
2.672000e-4,0.00e+0,
2.676000e-4,8.00e-2,
2.680000e-4,8.00e-2,
2.684000e-4,0.00e+0,
2.688000e-4,0.00e+0,
2.692000e-4,0.00e+0,
2.696000e-4,0.00e+0,
2.700000e-4,8.00e-2,
2.704000e-4,8.00e-2,
2.708000e-4,8.00e-2,
2.712000e-4,8.00e-2,
2.716000e-4,0.00e+0,
2.720000e-4,0.00e+0,
2.724000e-4,0.00e+0,
2.728000e-4,0.00e+0,
2.732000e-4,0.00e+0,
2.736000e-4,0.00e+0,
2.740000e-4,8.00e-2,
2.744000e-4,8.00e-2,
2.748000e-4,9.60e-1,
2.752000e-4,3.28e+0,
2.756000e-4,3.20e+0,
2.760000e-4,3.20e+0,
2.764000e-4,3.28e+0,
2.768000e-4,3.28e+0,
2.772000e-4,3.36e+0,
2.776000e-4,3.36e+0,
2.780000e-4,3.28e+0,
2.784000e-4,3.28e+0,
2.788000e-4,3.28e+0,
2.792000e-4,3.28e+0,
2.796000e-4,3.28e+0,
2.800000e-4,3.28e+0,
2.804000e-4,3.28e+0,
2.808000e-4,3.28e+0,
2.812000e-4,3.28e+0,
2.816000e-4,3.28e+0,
2.820000e-4,3.28e+0,
2.824000e-4,3.28e+0,
2.828000e-4,3.28e+0,
2.832000e-4,3.28e+0,
2.836000e-4,3.28e+0,
2.840000e-4,3.28e+0,
2.844000e-4,3.28e+0,
2.848000e-4,3.28e+0,
2.852000e-4,3.28e+0,
2.856000e-4,3.28e+0,
2.860000e-4,3.28e+0,
2.864000e-4,3.28e+0,
2.868000e-4,3.28e+0,
2.872000e-4,3.28e+0,
2.876000e-4,3.28e+0,
2.880000e-4,-1.28e+0,
2.884000e-4,-5.60e-1,
2.888000e-4,-5.60e-1,
2.892000e-4,0.00e+0,
2.896000e-4,0.00e+0,
2.900000e-4,0.00e+0,
2.904000e-4,0.00e+0,
2.908000e-4,0.00e+0,
2.912000e-4,0.00e+0,
2.916000e-4,0.00e+0,
2.920000e-4,0.00e+0,
2.924000e-4,8.00e-2,
2.928000e-4,8.00e-2,
2.932000e-4,0.00e+0,
2.936000e-4,0.00e+0,
2.940000e-4,0.00e+0,
2.944000e-4,0.00e+0,
2.948000e-4,0.00e+0,
2.952000e-4,0.00e+0,
2.956000e-4,0.00e+0,
2.960000e-4,0.00e+0,
2.964000e-4,0.00e+0,
2.968000e-4,0.00e+0,
2.972000e-4,0.00e+0,
2.976000e-4,0.00e+0,
2.980000e-4,0.00e+0,
2.984000e-4,0.00e+0,
2.988000e-4,8.00e-2,
2.992000e-4,8.00e-2,
2.996000e-4,-8.00e-2,
3.000000e-4,-8.00e-2,
3.004000e-4,0.00e+0,
3.008000e-4,0.00e+0,
3.012000e-4,0.00e+0,
3.016000e-4,1.76e+0,
3.020000e-4,1.76e+0,
3.024000e-4,3.36e+0,
3.028000e-4,3.28e+0,
3.032000e-4,3.28e+0,
3.036000e-4,3.28e+0,
3.040000e-4,3.28e+0,
3.044000e-4,3.28e+0,
3.048000e-4,3.28e+0,
3.052000e-4,3.28e+0,
3.056000e-4,3.28e+0,
3.060000e-4,3.20e+0,
3.064000e-4,3.20e+0,
3.068000e-4,3.28e+0,
3.072000e-4,3.28e+0,
3.076000e-4,3.28e+0,
3.080000e-4,3.28e+0,
3.084000e-4,3.28e+0,
3.088000e-4,3.28e+0,
3.092000e-4,3.28e+0,
3.096000e-4,3.28e+0,
3.100000e-4,3.28e+0,
3.104000e-4,3.28e+0,
3.108000e-4,3.28e+0,
3.112000e-4,3.28e+0,
3.116000e-4,3.36e+0,
3.120000e-4,3.36e+0,
3.124000e-4,3.28e+0,
3.128000e-4,3.28e+0,
3.132000e-4,3.28e+0,
3.136000e-4,3.28e+0,
3.140000e-4,3.28e+0,
3.144000e-4,3.28e+0,
3.148000e-4,3.28e+0,
3.152000e-4,3.28e+0,
3.156000e-4,3.28e+0,
3.160000e-4,3.28e+0,
3.164000e-4,3.36e+0,
3.168000e-4,3.36e+0,
3.172000e-4,3.28e+0,
3.176000e-4,3.28e+0,
3.180000e-4,3.28e+0,
3.184000e-4,3.28e+0,
3.188000e-4,3.28e+0,
3.192000e-4,3.28e+0,
3.196000e-4,3.28e+0,
3.200000e-4,3.28e+0,
3.204000e-4,3.28e+0,
3.208000e-4,3.28e+0,
3.212000e-4,3.28e+0,
3.216000e-4,3.28e+0,
3.220000e-4,3.28e+0,
3.224000e-4,3.28e+0,
3.228000e-4,3.28e+0,
3.232000e-4,3.28e+0,
3.236000e-4,3.28e+0,
3.240000e-4,3.28e+0,
3.244000e-4,3.28e+0,
3.248000e-4,3.28e+0,
3.252000e-4,3.36e+0,
3.256000e-4,3.36e+0,
3.260000e-4,3.28e+0,
3.264000e-4,3.28e+0,
3.268000e-4,3.28e+0,
3.272000e-4,3.28e+0,
3.276000e-4,3.20e+0,
3.280000e-4,3.20e+0,
3.284000e-4,3.28e+0,
3.288000e-4,3.28e+0,
3.292000e-4,3.28e+0,
3.296000e-4,3.28e+0,
3.300000e-4,3.28e+0,
3.304000e-4,3.28e+0,
3.308000e-4,3.28e+0,
3.312000e-4,3.28e+0,
3.316000e-4,3.28e+0,
3.320000e-4,3.28e+0,
3.324000e-4,3.28e+0,
3.328000e-4,3.28e+0,
3.332000e-4,3.36e+0,
3.336000e-4,3.36e+0,
3.340000e-4,3.36e+0,
3.344000e-4,3.36e+0,
3.348000e-4,3.28e+0,
3.352000e-4,3.28e+0,
3.356000e-4,3.28e+0,
3.360000e-4,3.28e+0,
3.364000e-4,3.28e+0,
3.368000e-4,3.28e+0,
3.372000e-4,3.28e+0,
3.376000e-4,3.28e+0,
3.380000e-4,3.28e+0,
3.384000e-4,3.28e+0,
3.388000e-4,3.28e+0,
3.392000e-4,3.28e+0,
3.396000e-4,3.28e+0,
3.400000e-4,3.28e+0,
3.404000e-4,3.28e+0,
3.408000e-4,3.28e+0,
3.412000e-4,3.28e+0,
3.416000e-4,3.28e+0,
3.420000e-4,3.28e+0,
3.424000e-4,-1.60e+0,
3.428000e-4,-8.00e-2,
3.432000e-4,-8.00e-2,
3.436000e-4,-8.00e-2,
3.440000e-4,-8.00e-2,
3.444000e-4,0.00e+0,
3.448000e-4,0.00e+0,
3.452000e-4,0.00e+0,
3.456000e-4,0.00e+0,
3.460000e-4,0.00e+0,
3.464000e-4,0.00e+0,
3.468000e-4,0.00e+0,
3.472000e-4,0.00e+0,
3.476000e-4,0.00e+0,
3.480000e-4,0.00e+0,
3.484000e-4,8.00e-2,
3.488000e-4,8.00e-2,
3.492000e-4,0.00e+0,
3.496000e-4,0.00e+0,
3.500000e-4,0.00e+0,
3.504000e-4,0.00e+0,
3.508000e-4,8.00e-2,
3.512000e-4,8.00e-2,
3.516000e-4,8.00e-2,
3.520000e-4,8.00e-2,
3.524000e-4,-8.00e-2,
3.528000e-4,-8.00e-2,
3.532000e-4,0.00e+0,
3.536000e-4,0.00e+0,
3.540000e-4,0.00e+0,
3.544000e-4,0.00e+0,
3.548000e-4,0.00e+0,
3.552000e-4,0.00e+0,
3.556000e-4,0.00e+0,
3.560000e-4,0.00e+0,
3.564000e-4,8.00e-2,
3.568000e-4,8.00e-2,
3.572000e-4,8.00e-2,
3.576000e-4,8.00e-2,
3.580000e-4,0.00e+0,
3.584000e-4,0.00e+0,
3.588000e-4,0.00e+0,
3.592000e-4,0.00e+0,
3.596000e-4,0.00e+0,
3.600000e-4,0.00e+0,
3.604000e-4,0.00e+0,
3.608000e-4,0.00e+0,
3.612000e-4,0.00e+0,
3.616000e-4,0.00e+0,
3.620000e-4,8.00e-2,
3.624000e-4,8.00e-2,
3.628000e-4,0.00e+0,
3.632000e-4,0.00e+0,
3.636000e-4,-8.00e-2,
3.640000e-4,-8.00e-2,
3.644000e-4,0.00e+0,
3.648000e-4,0.00e+0,
3.652000e-4,0.00e+0,
3.656000e-4,0.00e+0,
3.660000e-4,8.00e-2,
3.664000e-4,8.00e-2,
3.668000e-4,-8.00e-2,
3.672000e-4,-8.00e-2,
3.676000e-4,8.00e-2,
3.680000e-4,8.00e-2,
3.684000e-4,0.00e+0,
3.688000e-4,2.48e+0,
3.692000e-4,2.56e+0,
3.696000e-4,2.56e+0,
3.700000e-4,3.28e+0,
3.704000e-4,3.28e+0,
3.708000e-4,3.28e+0,
3.712000e-4,3.28e+0,
3.716000e-4,3.28e+0,
3.720000e-4,3.28e+0,
3.724000e-4,3.28e+0,
3.728000e-4,3.28e+0,
3.732000e-4,3.36e+0,
3.736000e-4,3.36e+0,
3.740000e-4,3.28e+0,
3.744000e-4,3.28e+0,
3.748000e-4,3.28e+0,
3.752000e-4,3.28e+0,
3.756000e-4,3.28e+0,
3.760000e-4,3.28e+0,
3.764000e-4,3.28e+0,
3.768000e-4,3.28e+0,
3.772000e-4,3.28e+0,
3.776000e-4,3.28e+0,
3.780000e-4,3.28e+0,
3.784000e-4,3.28e+0,
3.788000e-4,3.28e+0,
3.792000e-4,3.28e+0,
3.796000e-4,3.28e+0,
3.800000e-4,3.28e+0,
3.804000e-4,3.28e+0,
3.808000e-4,3.28e+0,
3.812000e-4,3.28e+0,
3.816000e-4,3.28e+0,
3.820000e-4,3.28e+0,
3.824000e-4,-1.36e+0,
3.828000e-4,0.00e+0,
3.832000e-4,0.00e+0,
3.836000e-4,0.00e+0,
3.840000e-4,0.00e+0,
3.844000e-4,-8.00e-2,
3.848000e-4,-8.00e-2,
3.852000e-4,0.00e+0,
3.856000e-4,0.00e+0,
3.860000e-4,-8.00e-2,
3.864000e-4,-8.00e-2,
3.868000e-4,0.00e+0,
3.872000e-4,0.00e+0,
3.876000e-4,0.00e+0,
3.880000e-4,0.00e+0,
3.884000e-4,0.00e+0,
3.888000e-4,0.00e+0,
3.892000e-4,0.00e+0,
3.896000e-4,0.00e+0,
3.900000e-4,0.00e+0,
3.904000e-4,0.00e+0,
3.908000e-4,8.00e-2,
3.912000e-4,8.00e-2,
3.916000e-4,0.00e+0,
3.920000e-4,0.00e+0,
3.924000e-4,-1.60e-1,
3.928000e-4,-1.60e-1,
3.932000e-4,0.00e+0,
3.936000e-4,0.00e+0,
3.940000e-4,0.00e+0,
3.944000e-4,0.00e+0,
3.948000e-4,8.00e-2,
3.952000e-4,8.00e-2,
3.956000e-4,-8.00e-2,
3.960000e-4,3.04e+0,
3.964000e-4,3.04e+0,
3.968000e-4,3.04e+0,
3.972000e-4,3.28e+0,
3.976000e-4,3.28e+0,
3.980000e-4,3.28e+0,
3.984000e-4,3.28e+0,
3.988000e-4,3.28e+0,
3.992000e-4,3.28e+0,
3.996000e-4,3.28e+0,
4.000000e-4,3.28e+0,
4.004000e-4,3.28e+0,
4.008000e-4,3.28e+0,
4.012000e-4,3.28e+0,
4.016000e-4,3.28e+0,
4.020000e-4,3.36e+0,
4.024000e-4,3.36e+0,
4.028000e-4,3.28e+0,
4.032000e-4,3.28e+0,
4.036000e-4,3.28e+0,
4.040000e-4,3.28e+0,
4.044000e-4,3.28e+0,
4.048000e-4,3.28e+0,
4.052000e-4,3.28e+0,
4.056000e-4,3.28e+0,
4.060000e-4,3.28e+0,
4.064000e-4,3.28e+0,
4.068000e-4,3.28e+0,
4.072000e-4,3.28e+0,
4.076000e-4,3.28e+0,
4.080000e-4,3.28e+0,
4.084000e-4,3.28e+0,
4.088000e-4,3.28e+0,
4.092000e-4,3.12e+0,
4.096000e-4,-1.28e+0,
4.100000e-4,8.00e-2,
4.104000e-4,8.00e-2,
4.108000e-4,0.00e+0,
4.112000e-4,0.00e+0,
4.116000e-4,0.00e+0,
4.120000e-4,0.00e+0,
4.124000e-4,8.00e-2,
4.128000e-4,8.00e-2,
4.132000e-4,-8.00e-2,
4.136000e-4,-8.00e-2,
4.140000e-4,0.00e+0,
4.144000e-4,0.00e+0,
4.148000e-4,0.00e+0,
4.152000e-4,0.00e+0,
4.156000e-4,0.00e+0,
4.160000e-4,0.00e+0,
4.164000e-4,0.00e+0,
4.168000e-4,0.00e+0,
4.172000e-4,0.00e+0,
4.176000e-4,0.00e+0,
4.180000e-4,0.00e+0,
4.184000e-4,0.00e+0,
4.188000e-4,0.00e+0,
4.192000e-4,0.00e+0,
4.196000e-4,0.00e+0,
4.200000e-4,0.00e+0,
4.204000e-4,8.00e-2,
4.208000e-4,8.00e-2,
4.212000e-4,-8.00e-2,
4.216000e-4,-8.00e-2,
4.220000e-4,0.00e+0,
4.224000e-4,0.00e+0,
4.228000e-4,-8.00e-2,
4.232000e-4,-8.00e-2,
4.236000e-4,0.00e+0,
4.240000e-4,0.00e+0,
4.244000e-4,0.00e+0,
4.248000e-4,0.00e+0,
4.252000e-4,-8.00e-2,
4.256000e-4,-8.00e-2,
4.260000e-4,0.00e+0,
4.264000e-4,0.00e+0,
4.268000e-4,-8.00e-2,
4.272000e-4,-8.00e-2,
4.276000e-4,0.00e+0,
4.280000e-4,0.00e+0,
4.284000e-4,0.00e+0,
4.288000e-4,0.00e+0,
4.292000e-4,8.00e-2,
4.296000e-4,8.00e-2,
4.300000e-4,8.00e-2,
4.304000e-4,8.00e-2,
4.308000e-4,8.00e-2,
4.312000e-4,8.00e-2,
4.316000e-4,8.00e-2,
4.320000e-4,8.00e-2,
4.324000e-4,0.00e+0,
4.328000e-4,0.00e+0,
4.332000e-4,0.00e+0,
4.336000e-4,0.00e+0,
4.340000e-4,-8.00e-2,
4.344000e-4,-8.00e-2,
4.348000e-4,0.00e+0,
4.352000e-4,0.00e+0,
4.356000e-4,0.00e+0,
4.360000e-4,0.00e+0,
4.364000e-4,0.00e+0,
4.368000e-4,0.00e+0,
4.372000e-4,8.00e-2,
4.376000e-4,8.00e-2,
4.380000e-4,0.00e+0,
4.384000e-4,0.00e+0,
4.388000e-4,0.00e+0,
4.392000e-4,0.00e+0,
4.396000e-4,0.00e+0,
4.400000e-4,0.00e+0,
4.404000e-4,0.00e+0,
4.408000e-4,0.00e+0,
4.412000e-4,0.00e+0,
4.416000e-4,0.00e+0,
4.420000e-4,0.00e+0,
4.424000e-4,0.00e+0,
4.428000e-4,0.00e+0,
4.432000e-4,0.00e+0,
4.436000e-4,0.00e+0,
4.440000e-4,0.00e+0,
4.444000e-4,0.00e+0,
4.448000e-4,0.00e+0,
4.452000e-4,0.00e+0,
4.456000e-4,0.00e+0,
4.460000e-4,-8.00e-2,
4.464000e-4,-8.00e-2,
4.468000e-4,0.00e+0,
4.472000e-4,0.00e+0,
4.476000e-4,0.00e+0,
4.480000e-4,0.00e+0,
4.484000e-4,0.00e+0,
4.488000e-4,0.00e+0,
4.492000e-4,0.00e+0,
4.496000e-4,2.96e+0,
4.500000e-4,3.04e+0,
4.504000e-4,3.04e+0,
4.508000e-4,3.28e+0,
4.512000e-4,3.28e+0,
4.516000e-4,3.28e+0,
4.520000e-4,3.28e+0,
4.524000e-4,3.28e+0,
4.528000e-4,3.28e+0,
4.532000e-4,3.28e+0,
4.536000e-4,3.28e+0,
4.540000e-4,3.28e+0,
4.544000e-4,3.28e+0,
4.548000e-4,3.28e+0,
4.552000e-4,3.28e+0,
4.556000e-4,3.28e+0,
4.560000e-4,3.28e+0,
4.564000e-4,3.28e+0,
4.568000e-4,3.28e+0,
4.572000e-4,3.28e+0,
4.576000e-4,3.28e+0,
4.580000e-4,3.28e+0,
4.584000e-4,3.28e+0,
4.588000e-4,3.28e+0,
4.592000e-4,3.28e+0,
4.596000e-4,3.28e+0,
4.600000e-4,3.28e+0,
4.604000e-4,3.28e+0,
4.608000e-4,3.28e+0,
4.612000e-4,3.28e+0,
4.616000e-4,3.28e+0,
4.620000e-4,3.28e+0,
4.624000e-4,3.28e+0,
4.628000e-4,3.20e+0,
4.632000e-4,-1.68e+0,
4.636000e-4,0.00e+0,
4.640000e-4,0.00e+0,
4.644000e-4,-1.60e-1,
4.648000e-4,-1.60e-1,
4.652000e-4,8.00e-2,
4.656000e-4,8.00e-2,
4.660000e-4,8.00e-2,
4.664000e-4,8.00e-2,
4.668000e-4,0.00e+0,
4.672000e-4,0.00e+0,
4.676000e-4,8.00e-2,
4.680000e-4,8.00e-2,
4.684000e-4,0.00e+0,
4.688000e-4,0.00e+0,
4.692000e-4,8.00e-2,
4.696000e-4,8.00e-2,
4.700000e-4,0.00e+0,
4.704000e-4,0.00e+0,
4.708000e-4,0.00e+0,
4.712000e-4,0.00e+0,
4.716000e-4,8.00e-2,
4.720000e-4,8.00e-2,
4.724000e-4,8.00e-2,
4.728000e-4,8.00e-2,
4.732000e-4,0.00e+0,
4.736000e-4,0.00e+0,
4.740000e-4,8.00e-2,
4.744000e-4,8.00e-2,
4.748000e-4,0.00e+0,
4.752000e-4,0.00e+0,
4.756000e-4,0.00e+0,
4.760000e-4,0.00e+0,
4.764000e-4,8.00e-2,
4.768000e-4,3.36e+0,
4.772000e-4,3.28e+0,
4.776000e-4,3.28e+0,
4.780000e-4,3.28e+0,
4.784000e-4,3.28e+0,
4.788000e-4,3.20e+0,
4.792000e-4,3.20e+0,
4.796000e-4,3.28e+0,
4.800000e-4,3.28e+0,
4.804000e-4,3.28e+0,
4.808000e-4,3.28e+0,
4.812000e-4,3.36e+0,
4.816000e-4,3.36e+0,
4.820000e-4,3.28e+0,
4.824000e-4,3.28e+0,
4.828000e-4,3.36e+0,
4.832000e-4,3.36e+0,
4.836000e-4,3.28e+0,
4.840000e-4,3.28e+0,
4.844000e-4,3.28e+0,
4.848000e-4,3.28e+0,
4.852000e-4,3.20e+0,
4.856000e-4,3.20e+0,
4.860000e-4,3.36e+0,
4.864000e-4,3.36e+0,
4.868000e-4,3.28e+0,
4.872000e-4,3.28e+0,
4.876000e-4,3.28e+0,
4.880000e-4,3.28e+0,
4.884000e-4,3.28e+0,
4.888000e-4,3.28e+0,
4.892000e-4,3.28e+0,
4.896000e-4,-1.52e+0,
4.900000e-4,-1.60e-1,
4.904000e-4,-1.60e-1,
4.908000e-4,0.00e+0,
4.912000e-4,0.00e+0,
4.916000e-4,8.00e-2,
4.920000e-4,8.00e-2,
4.924000e-4,8.00e-2,
4.928000e-4,8.00e-2,
4.932000e-4,-8.00e-2,
4.936000e-4,-8.00e-2,
4.940000e-4,0.00e+0,
4.944000e-4,0.00e+0,
4.948000e-4,0.00e+0,
4.952000e-4,0.00e+0,
4.956000e-4,0.00e+0,
4.960000e-4,0.00e+0,
4.964000e-4,0.00e+0,
4.968000e-4,0.00e+0,
4.972000e-4,0.00e+0,
4.976000e-4,0.00e+0,
4.980000e-4,0.00e+0,
4.984000e-4,0.00e+0,
4.988000e-4,8.00e-2,
4.992000e-4,8.00e-2,
4.996000e-4,0.00e+0,
5.000000e-4,0.00e+0,
5.004000e-4,0.00e+0,
5.008000e-4,0.00e+0,
5.012000e-4,0.00e+0,
5.016000e-4,0.00e+0,
5.020000e-4,8.00e-2,
5.024000e-4,8.00e-2,
5.028000e-4,0.00e+0,
5.032000e-4,1.60e+0,
5.036000e-4,1.60e+0,
5.040000e-4,3.36e+0,
5.044000e-4,3.28e+0,
5.048000e-4,3.28e+0,
5.052000e-4,3.28e+0,
5.056000e-4,3.28e+0,
5.060000e-4,3.28e+0,
5.064000e-4,3.28e+0,
5.068000e-4,3.28e+0,
5.072000e-4,3.28e+0,
5.076000e-4,3.28e+0,
5.080000e-4,3.28e+0,
5.084000e-4,3.36e+0,
5.088000e-4,3.36e+0,
5.092000e-4,3.28e+0,
5.096000e-4,3.28e+0,
5.100000e-4,3.28e+0,
5.104000e-4,3.28e+0,
5.108000e-4,3.28e+0,
5.112000e-4,3.28e+0,
5.116000e-4,3.28e+0,
5.120000e-4,3.28e+0,
5.124000e-4,3.36e+0,
5.128000e-4,3.36e+0,
5.132000e-4,3.36e+0,
5.136000e-4,3.36e+0,
5.140000e-4,3.28e+0,
5.144000e-4,3.28e+0,
5.148000e-4,3.28e+0,
5.152000e-4,3.28e+0,
5.156000e-4,3.28e+0,
5.160000e-4,3.28e+0,
5.164000e-4,3.28e+0,
5.168000e-4,-1.52e+0,
5.172000e-4,0.00e+0,
5.176000e-4,0.00e+0,
5.180000e-4,-8.00e-2,
5.184000e-4,-8.00e-2,
5.188000e-4,0.00e+0,
5.192000e-4,0.00e+0,
5.196000e-4,-8.00e-2,
5.200000e-4,-8.00e-2,
5.204000e-4,8.00e-2,
5.208000e-4,8.00e-2,
5.212000e-4,1.60e-1,
5.216000e-4,1.60e-1,
5.220000e-4,8.00e-2,
5.224000e-4,8.00e-2,
5.228000e-4,-8.00e-2,
5.232000e-4,-8.00e-2,
5.236000e-4,0.00e+0,
5.240000e-4,0.00e+0,
5.244000e-4,0.00e+0,
5.248000e-4,0.00e+0,
5.252000e-4,8.00e-2,
5.256000e-4,8.00e-2,
5.260000e-4,-8.00e-2,
5.264000e-4,-8.00e-2,
5.268000e-4,0.00e+0,
5.272000e-4,0.00e+0,
5.276000e-4,-8.00e-2,
5.280000e-4,-8.00e-2,
5.284000e-4,0.00e+0,
5.288000e-4,0.00e+0,
5.292000e-4,8.00e-2,
5.296000e-4,8.00e-2,
5.300000e-4,0.00e+0,
5.304000e-4,2.96e+0,
5.308000e-4,2.96e+0,
5.312000e-4,2.96e+0,
5.316000e-4,3.28e+0,
5.320000e-4,3.28e+0,
5.324000e-4,3.36e+0,
5.328000e-4,3.36e+0,
5.332000e-4,3.28e+0,
5.336000e-4,3.28e+0,
5.340000e-4,3.28e+0,
5.344000e-4,3.28e+0,
5.348000e-4,3.36e+0,
5.352000e-4,3.36e+0,
5.356000e-4,3.28e+0,
5.360000e-4,3.28e+0,
5.364000e-4,3.36e+0,
5.368000e-4,3.36e+0,
5.372000e-4,3.28e+0,
5.376000e-4,3.28e+0,
5.380000e-4,3.28e+0,
5.384000e-4,3.28e+0,
5.388000e-4,3.28e+0,
5.392000e-4,3.28e+0,
5.396000e-4,3.36e+0,
5.400000e-4,3.36e+0,
5.404000e-4,3.28e+0,
5.408000e-4,3.28e+0,
5.412000e-4,3.28e+0,
5.416000e-4,3.28e+0,
5.420000e-4,3.28e+0,
5.424000e-4,3.28e+0,
5.428000e-4,3.28e+0,
5.432000e-4,3.28e+0,
5.436000e-4,3.36e+0,
5.440000e-4,-1.44e+0,
5.444000e-4,0.00e+0,
5.448000e-4,0.00e+0,
5.452000e-4,-8.00e-2,
5.456000e-4,-8.00e-2,
5.460000e-4,0.00e+0,
5.464000e-4,0.00e+0,
5.468000e-4,8.00e-2,
5.472000e-4,8.00e-2,
5.476000e-4,0.00e+0,
5.480000e-4,0.00e+0,
5.484000e-4,8.00e-2,
5.488000e-4,8.00e-2,
5.492000e-4,0.00e+0,
5.496000e-4,0.00e+0,
5.500000e-4,0.00e+0,
5.504000e-4,0.00e+0,
5.508000e-4,8.00e-2,
5.512000e-4,8.00e-2,
5.516000e-4,0.00e+0,
5.520000e-4,0.00e+0,
5.524000e-4,0.00e+0,
5.528000e-4,0.00e+0,
5.532000e-4,0.00e+0,
5.536000e-4,0.00e+0,
5.540000e-4,0.00e+0,
5.544000e-4,0.00e+0,
5.548000e-4,0.00e+0,
5.552000e-4,0.00e+0,
5.556000e-4,8.00e-2,
5.560000e-4,8.00e-2,
5.564000e-4,0.00e+0,
5.568000e-4,0.00e+0,
5.572000e-4,3.20e-1,
5.576000e-4,3.36e+0,
5.580000e-4,3.28e+0,
5.584000e-4,3.28e+0,
5.588000e-4,3.28e+0,
5.592000e-4,3.28e+0,
5.596000e-4,3.28e+0,
5.600000e-4,3.28e+0,
5.604000e-4,3.20e+0,
5.608000e-4,3.20e+0,
5.612000e-4,3.28e+0,
5.616000e-4,3.28e+0,
5.620000e-4,3.20e+0,
5.624000e-4,3.20e+0,
5.628000e-4,3.28e+0,
5.632000e-4,3.28e+0,
5.636000e-4,3.28e+0,
5.640000e-4,3.28e+0,
5.644000e-4,3.36e+0,
5.648000e-4,3.36e+0,
5.652000e-4,3.28e+0,
5.656000e-4,3.28e+0,
5.660000e-4,3.28e+0,
5.664000e-4,3.28e+0,
5.668000e-4,3.28e+0,
5.672000e-4,3.28e+0,
5.676000e-4,3.28e+0,
5.680000e-4,3.28e+0,
5.684000e-4,3.28e+0,
5.688000e-4,3.28e+0,
5.692000e-4,3.28e+0,
5.696000e-4,3.28e+0,
5.700000e-4,3.36e+0,
5.704000e-4,-1.28e+0,
5.708000e-4,-1.60e-1,
5.712000e-4,-1.60e-1,
5.716000e-4,0.00e+0,
5.720000e-4,0.00e+0,
5.724000e-4,8.00e-2,
5.728000e-4,8.00e-2,
5.732000e-4,-8.00e-2,
5.736000e-4,-8.00e-2,
5.740000e-4,8.00e-2,
5.744000e-4,8.00e-2,
5.748000e-4,0.00e+0,
5.752000e-4,0.00e+0,
5.756000e-4,0.00e+0,
5.760000e-4,0.00e+0,
5.764000e-4,0.00e+0,
5.768000e-4,0.00e+0,
5.772000e-4,0.00e+0,
5.776000e-4,0.00e+0,
5.780000e-4,0.00e+0,
5.784000e-4,0.00e+0,
5.788000e-4,0.00e+0,
5.792000e-4,0.00e+0,
5.796000e-4,0.00e+0,
5.800000e-4,0.00e+0,
5.804000e-4,0.00e+0,
5.808000e-4,0.00e+0,
5.812000e-4,8.00e-2,
5.816000e-4,8.00e-2,
5.820000e-4,8.00e-2,
5.824000e-4,8.00e-2,
5.828000e-4,0.00e+0,
5.832000e-4,0.00e+0,
5.836000e-4,8.00e-2,
5.840000e-4,8.00e-2,
5.844000e-4,0.00e+0,
5.848000e-4,0.00e+0,
5.852000e-4,0.00e+0,
5.856000e-4,0.00e+0,
5.860000e-4,0.00e+0,
5.864000e-4,0.00e+0,
5.868000e-4,-8.00e-2,
5.872000e-4,-8.00e-2,
5.876000e-4,0.00e+0,
5.880000e-4,0.00e+0,
5.884000e-4,0.00e+0,
5.888000e-4,0.00e+0,
5.892000e-4,8.00e-2,
5.896000e-4,8.00e-2,
5.900000e-4,0.00e+0,
5.904000e-4,0.00e+0,
5.908000e-4,0.00e+0,
5.912000e-4,0.00e+0,
5.916000e-4,0.00e+0,
5.920000e-4,0.00e+0,
5.924000e-4,-8.00e-2,
5.928000e-4,-8.00e-2,
5.932000e-4,-8.00e-2,
5.936000e-4,-8.00e-2,
5.940000e-4,0.00e+0,
5.944000e-4,0.00e+0,
5.948000e-4,8.00e-2,
5.952000e-4,8.00e-2,
5.956000e-4,0.00e+0,
5.960000e-4,0.00e+0,
5.964000e-4,0.00e+0,
5.968000e-4,0.00e+0,
5.972000e-4,0.00e+0,
5.976000e-4,3.12e+0,
5.980000e-4,3.20e+0,
5.984000e-4,3.20e+0,
5.988000e-4,3.28e+0,
5.992000e-4,3.28e+0,
5.996000e-4,3.28e+0,
6.000000e-4,3.28e+0,
6.004000e-4,3.28e+0,
6.008000e-4,3.28e+0,
6.012000e-4,3.28e+0,
6.016000e-4,3.28e+0,
6.020000e-4,3.28e+0,
6.024000e-4,3.28e+0,
6.028000e-4,3.20e+0,
6.032000e-4,3.20e+0,
6.036000e-4,3.36e+0,
6.040000e-4,3.36e+0,
6.044000e-4,3.28e+0,
6.048000e-4,3.28e+0,
6.052000e-4,3.36e+0,
6.056000e-4,3.36e+0,
6.060000e-4,3.28e+0,
6.064000e-4,3.28e+0,
6.068000e-4,3.28e+0,
6.072000e-4,3.28e+0,
6.076000e-4,3.36e+0,
6.080000e-4,3.36e+0,
6.084000e-4,3.28e+0,
6.088000e-4,3.28e+0,
6.092000e-4,3.28e+0,
6.096000e-4,3.28e+0,
6.100000e-4,3.28e+0,
6.104000e-4,3.28e+0,
6.108000e-4,3.28e+0,
6.112000e-4,-1.44e+0,
6.116000e-4,-8.00e-2,
6.120000e-4,-8.00e-2,
6.124000e-4,0.00e+0,
6.128000e-4,0.00e+0,
6.132000e-4,0.00e+0,
6.136000e-4,0.00e+0,
6.140000e-4,0.00e+0,
6.144000e-4,0.00e+0,
6.148000e-4,8.00e-2,
6.152000e-4,8.00e-2,
6.156000e-4,0.00e+0,
6.160000e-4,0.00e+0,
6.164000e-4,8.00e-2,
6.168000e-4,8.00e-2,
6.172000e-4,0.00e+0,
6.176000e-4,0.00e+0,
6.180000e-4,0.00e+0,
6.184000e-4,0.00e+0,
6.188000e-4,0.00e+0,
6.192000e-4,0.00e+0,
6.196000e-4,-8.00e-2,
6.200000e-4,-8.00e-2,
6.204000e-4,-8.00e-2,
6.208000e-4,-8.00e-2,
6.212000e-4,-8.00e-2,
6.216000e-4,-8.00e-2,
6.220000e-4,0.00e+0,
6.224000e-4,0.00e+0,
6.228000e-4,0.00e+0,
6.232000e-4,0.00e+0,
6.236000e-4,0.00e+0,
6.240000e-4,0.00e+0,
6.244000e-4,4.80e-1,
6.248000e-4,3.28e+0,
6.252000e-4,3.28e+0,
6.256000e-4,3.28e+0,
6.260000e-4,3.28e+0,
6.264000e-4,3.28e+0,
6.268000e-4,3.36e+0,
6.272000e-4,3.36e+0,
6.276000e-4,3.28e+0,
6.280000e-4,3.28e+0,
6.284000e-4,3.36e+0,
6.288000e-4,3.36e+0,
6.292000e-4,3.28e+0,
6.296000e-4,3.28e+0,
6.300000e-4,3.28e+0,
6.304000e-4,3.28e+0,
6.308000e-4,3.28e+0,
6.312000e-4,3.28e+0,
6.316000e-4,3.28e+0,
6.320000e-4,3.28e+0,
6.324000e-4,3.20e+0,
6.328000e-4,3.20e+0,
6.332000e-4,3.28e+0,
6.336000e-4,3.28e+0,
6.340000e-4,3.20e+0,
6.344000e-4,3.20e+0,
6.348000e-4,3.20e+0,
6.352000e-4,3.20e+0,
6.356000e-4,3.28e+0,
6.360000e-4,3.28e+0,
6.364000e-4,3.28e+0,
6.368000e-4,3.28e+0,
6.372000e-4,3.28e+0,
6.376000e-4,3.28e+0,
6.380000e-4,3.28e+0,
6.384000e-4,3.28e+0,
6.388000e-4,3.28e+0,
6.392000e-4,3.28e+0,
6.396000e-4,3.28e+0,
6.400000e-4,3.28e+0,
6.404000e-4,3.28e+0,
6.408000e-4,3.28e+0,
6.412000e-4,3.28e+0,
6.416000e-4,3.28e+0,
6.420000e-4,3.20e+0,
6.424000e-4,3.20e+0,
6.428000e-4,3.28e+0,
6.432000e-4,3.28e+0,
6.436000e-4,3.28e+0,
6.440000e-4,3.28e+0,
6.444000e-4,3.28e+0,
6.448000e-4,3.28e+0,
6.452000e-4,3.28e+0,
6.456000e-4,3.28e+0,
6.460000e-4,3.28e+0,
6.464000e-4,3.28e+0,
6.468000e-4,3.36e+0,
6.472000e-4,3.36e+0,
6.476000e-4,3.28e+0,
6.480000e-4,3.28e+0,
6.484000e-4,3.36e+0,
6.488000e-4,3.36e+0,
6.492000e-4,3.28e+0,
6.496000e-4,3.28e+0,
6.500000e-4,3.28e+0,
6.504000e-4,3.28e+0,
6.508000e-4,3.36e+0,
6.512000e-4,-1.52e+0,
6.516000e-4,-8.00e-2,
6.520000e-4,-8.00e-2,
6.524000e-4,-8.00e-2,
6.528000e-4,-8.00e-2,
6.532000e-4,0.00e+0,
6.536000e-4,0.00e+0,
6.540000e-4,-8.00e-2,
6.544000e-4,-8.00e-2,
6.548000e-4,0.00e+0,
6.552000e-4,0.00e+0,
6.556000e-4,0.00e+0,
6.560000e-4,0.00e+0,
6.564000e-4,0.00e+0,
6.568000e-4,0.00e+0,
6.572000e-4,0.00e+0,
6.576000e-4,0.00e+0,
6.580000e-4,0.00e+0,
6.584000e-4,0.00e+0,
6.588000e-4,0.00e+0,
6.592000e-4,0.00e+0,
6.596000e-4,8.00e-2,
6.600000e-4,8.00e-2,
6.604000e-4,8.00e-2,
6.608000e-4,8.00e-2,
6.612000e-4,0.00e+0,
6.616000e-4,0.00e+0,
6.620000e-4,0.00e+0,
6.624000e-4,0.00e+0,
6.628000e-4,8.00e-2,
6.632000e-4,8.00e-2,
6.636000e-4,-8.00e-2,
6.640000e-4,-8.00e-2,
6.644000e-4,0.00e+0,
6.648000e-4,2.96e+0,
6.652000e-4,2.96e+0,
6.656000e-4,2.96e+0,
6.660000e-4,3.28e+0,
6.664000e-4,3.28e+0,
6.668000e-4,3.28e+0,
6.672000e-4,3.28e+0,
6.676000e-4,3.28e+0,
6.680000e-4,3.28e+0,
6.684000e-4,3.28e+0,
6.688000e-4,3.28e+0,
6.692000e-4,3.28e+0,
6.696000e-4,3.28e+0,
6.700000e-4,3.28e+0,
6.704000e-4,3.28e+0,
6.708000e-4,3.28e+0,
6.712000e-4,3.28e+0,
6.716000e-4,3.28e+0,
6.720000e-4,3.28e+0,
6.724000e-4,3.28e+0,
6.728000e-4,3.28e+0,
6.732000e-4,3.28e+0,
6.736000e-4,3.28e+0,
6.740000e-4,3.28e+0,
6.744000e-4,3.28e+0,
6.748000e-4,3.28e+0,
6.752000e-4,3.28e+0,
6.756000e-4,3.28e+0,
6.760000e-4,3.28e+0,
6.764000e-4,3.28e+0,
6.768000e-4,3.28e+0,
6.772000e-4,3.36e+0,
6.776000e-4,3.36e+0,
6.780000e-4,3.28e+0,
6.784000e-4,-1.36e+0,
6.788000e-4,-8.00e-2,
6.792000e-4,-8.00e-2,
6.796000e-4,0.00e+0,
6.800000e-4,0.00e+0,
6.804000e-4,-1.60e-1,
6.808000e-4,-1.60e-1,
6.812000e-4,0.00e+0,
6.816000e-4,0.00e+0,
6.820000e-4,0.00e+0,
6.824000e-4,0.00e+0,
6.828000e-4,0.00e+0,
6.832000e-4,0.00e+0,
6.836000e-4,0.00e+0,
6.840000e-4,0.00e+0,
6.844000e-4,8.00e-2,
6.848000e-4,8.00e-2,
6.852000e-4,0.00e+0,
6.856000e-4,0.00e+0,
6.860000e-4,8.00e-2,
6.864000e-4,8.00e-2,
6.868000e-4,0.00e+0,
6.872000e-4,0.00e+0,
6.876000e-4,8.00e-2,
6.880000e-4,8.00e-2,
6.884000e-4,8.00e-2,
6.888000e-4,8.00e-2,
6.892000e-4,0.00e+0,
6.896000e-4,0.00e+0,
6.900000e-4,0.00e+0,
6.904000e-4,0.00e+0,
6.908000e-4,0.00e+0,
6.912000e-4,0.00e+0,
6.916000e-4,8.00e-1,
6.920000e-4,3.28e+0,
6.924000e-4,3.28e+0,
6.928000e-4,3.28e+0,
6.932000e-4,3.28e+0,
6.936000e-4,3.28e+0,
6.940000e-4,3.28e+0,
6.944000e-4,3.28e+0,
6.948000e-4,3.28e+0,
6.952000e-4,3.28e+0,
6.956000e-4,3.28e+0,
6.960000e-4,3.28e+0,
6.964000e-4,3.28e+0,
6.968000e-4,3.28e+0,
6.972000e-4,3.28e+0,
6.976000e-4,3.28e+0,
6.980000e-4,3.36e+0,
6.984000e-4,3.36e+0,
6.988000e-4,3.28e+0,
6.992000e-4,3.28e+0,
6.996000e-4,3.28e+0,
7.000000e-4,3.28e+0,
7.004000e-4,3.28e+0,
7.008000e-4,3.28e+0,
7.012000e-4,3.36e+0,
7.016000e-4,3.36e+0,
7.020000e-4,3.28e+0,
7.024000e-4,3.28e+0,
7.028000e-4,3.28e+0,
7.032000e-4,3.28e+0,
7.036000e-4,3.28e+0,
7.040000e-4,3.28e+0,
7.044000e-4,3.36e+0,
7.048000e-4,3.36e+0,
7.052000e-4,3.20e+0,
7.056000e-4,3.20e+0,
7.060000e-4,3.28e+0,
7.064000e-4,3.28e+0,
7.068000e-4,3.36e+0,
7.072000e-4,3.36e+0,
7.076000e-4,3.28e+0,
7.080000e-4,3.28e+0,
7.084000e-4,3.36e+0,
7.088000e-4,3.36e+0,
7.092000e-4,3.28e+0,
7.096000e-4,3.28e+0,
7.100000e-4,3.36e+0,
7.104000e-4,3.36e+0,
7.108000e-4,3.36e+0,
7.112000e-4,3.36e+0,
7.116000e-4,3.28e+0,
7.120000e-4,3.28e+0,
7.124000e-4,3.36e+0,
7.128000e-4,3.36e+0,
7.132000e-4,3.28e+0,
7.136000e-4,3.28e+0,
7.140000e-4,3.36e+0,
7.144000e-4,3.36e+0,
7.148000e-4,3.28e+0,
7.152000e-4,3.28e+0,
7.156000e-4,3.28e+0,
7.160000e-4,3.28e+0,
7.164000e-4,3.28e+0,
7.168000e-4,3.28e+0,
7.172000e-4,3.28e+0,
7.176000e-4,3.28e+0,
7.180000e-4,3.20e+0,
7.184000e-4,-1.92e+0,
7.188000e-4,0.00e+0,
7.192000e-4,0.00e+0,
7.196000e-4,8.00e-2,
7.200000e-4,8.00e-2,
7.204000e-4,0.00e+0,
7.208000e-4,0.00e+0,
7.212000e-4,8.00e-2,
7.216000e-4,8.00e-2,
7.220000e-4,0.00e+0,
7.224000e-4,0.00e+0,
7.228000e-4,0.00e+0,
7.232000e-4,0.00e+0,
7.236000e-4,-8.00e-2,
7.240000e-4,-8.00e-2,
7.244000e-4,0.00e+0,
7.248000e-4,0.00e+0,
7.252000e-4,0.00e+0,
7.256000e-4,0.00e+0,
7.260000e-4,0.00e+0,
7.264000e-4,0.00e+0,
7.268000e-4,0.00e+0,
7.272000e-4,0.00e+0,
7.276000e-4,0.00e+0,
7.280000e-4,0.00e+0,
7.284000e-4,0.00e+0,
7.288000e-4,0.00e+0,
7.292000e-4,8.00e-2,
7.296000e-4,8.00e-2,
7.300000e-4,8.00e-2,
7.304000e-4,1.44e+0,
7.308000e-4,1.52e+0,
7.312000e-4,3.36e+0,
7.316000e-4,3.36e+0,
7.320000e-4,3.36e+0,
7.324000e-4,3.28e+0,
7.328000e-4,3.28e+0,
7.332000e-4,3.28e+0,
7.336000e-4,3.28e+0,
7.340000e-4,3.28e+0,
7.344000e-4,3.28e+0,
7.348000e-4,3.28e+0,
7.352000e-4,3.28e+0,
7.356000e-4,3.28e+0,
7.360000e-4,3.28e+0,
7.364000e-4,3.28e+0,
7.368000e-4,3.28e+0,
7.372000e-4,3.28e+0,
7.376000e-4,3.28e+0,
7.380000e-4,3.28e+0,
7.384000e-4,3.28e+0,
7.388000e-4,3.28e+0,
7.392000e-4,3.28e+0,
7.396000e-4,3.28e+0,
7.400000e-4,3.28e+0,
7.404000e-4,3.28e+0,
7.408000e-4,3.28e+0,
7.412000e-4,3.28e+0,
7.416000e-4,3.28e+0,
7.420000e-4,3.28e+0,
7.424000e-4,3.28e+0,
7.428000e-4,3.28e+0,
7.432000e-4,3.28e+0,
7.436000e-4,3.28e+0,
7.440000e-4,3.28e+0,
7.444000e-4,3.36e+0,
7.448000e-4,3.36e+0,
7.452000e-4,3.36e+0,
7.456000e-4,3.36e+0,
7.460000e-4,3.28e+0,
7.464000e-4,3.28e+0,
7.468000e-4,3.28e+0,
7.472000e-4,3.28e+0,
7.476000e-4,3.28e+0,
7.480000e-4,3.28e+0,
7.484000e-4,3.28e+0,
7.488000e-4,3.28e+0,
7.492000e-4,3.28e+0,
7.496000e-4,3.28e+0,
7.500000e-4,3.28e+0,
7.504000e-4,3.28e+0,
7.508000e-4,3.28e+0,
7.512000e-4,3.28e+0,
7.516000e-4,3.36e+0,
7.520000e-4,3.36e+0,
7.524000e-4,3.28e+0,
7.528000e-4,3.28e+0,
7.532000e-4,3.28e+0,
7.536000e-4,3.28e+0,
7.540000e-4,3.28e+0,
7.544000e-4,3.28e+0,
7.548000e-4,3.28e+0,
7.552000e-4,3.28e+0,
7.556000e-4,3.36e+0,
7.560000e-4,3.36e+0,
7.564000e-4,3.20e+0,
7.568000e-4,3.20e+0,
7.572000e-4,3.28e+0,
7.576000e-4,3.28e+0,
7.580000e-4,3.28e+0,
7.584000e-4,3.28e+0,
7.588000e-4,3.28e+0,
7.592000e-4,3.28e+0,
7.596000e-4,3.36e+0,
7.600000e-4,3.36e+0,
7.604000e-4,3.36e+0,
7.608000e-4,3.36e+0,
7.612000e-4,3.28e+0,
7.616000e-4,3.28e+0,
7.620000e-4,3.28e+0,
7.624000e-4,3.28e+0,
7.628000e-4,3.28e+0,
7.632000e-4,3.28e+0,
7.636000e-4,3.36e+0,
7.640000e-4,3.36e+0,
7.644000e-4,3.36e+0,
7.648000e-4,3.36e+0,
7.652000e-4,3.28e+0,
7.656000e-4,3.28e+0,
7.660000e-4,3.28e+0,
7.664000e-4,3.28e+0,
7.668000e-4,3.36e+0,
7.672000e-4,3.36e+0,
7.676000e-4,3.28e+0,
7.680000e-4,3.28e+0,
7.684000e-4,3.28e+0,
7.688000e-4,3.28e+0,
7.692000e-4,3.36e+0,
7.696000e-4,3.36e+0,
7.700000e-4,3.36e+0,
7.704000e-4,3.36e+0,
7.708000e-4,3.28e+0,
7.712000e-4,3.28e+0,
7.716000e-4,3.28e+0,
7.720000e-4,3.28e+0,
7.724000e-4,3.28e+0,
7.728000e-4,3.28e+0,
7.732000e-4,3.28e+0,
7.736000e-4,3.28e+0,
7.740000e-4,3.28e+0,
7.744000e-4,3.28e+0,
7.748000e-4,3.28e+0,
7.752000e-4,3.28e+0,
7.756000e-4,3.36e+0,
7.760000e-4,3.36e+0,
7.764000e-4,3.28e+0,
7.768000e-4,3.28e+0,
7.772000e-4,3.28e+0,
7.776000e-4,3.28e+0,
7.780000e-4,3.28e+0,
7.784000e-4,3.28e+0,
7.788000e-4,3.28e+0,
7.792000e-4,3.28e+0,
7.796000e-4,3.28e+0,
7.800000e-4,3.28e+0,
7.804000e-4,3.28e+0,
7.808000e-4,3.28e+0,
7.812000e-4,3.28e+0,
7.816000e-4,3.28e+0,
7.820000e-4,3.28e+0,
7.824000e-4,3.28e+0,
7.828000e-4,3.28e+0,
7.832000e-4,3.28e+0,
7.836000e-4,3.36e+0,
7.840000e-4,3.36e+0,
7.844000e-4,3.28e+0,
7.848000e-4,3.28e+0,
7.852000e-4,3.36e+0,
7.856000e-4,3.36e+0,
7.860000e-4,3.28e+0,
7.864000e-4,3.28e+0,
7.868000e-4,3.20e+0,
7.872000e-4,3.20e+0,
7.876000e-4,3.36e+0,
7.880000e-4,3.36e+0,
7.884000e-4,3.36e+0,
7.888000e-4,3.36e+0,
7.892000e-4,3.28e+0,
7.896000e-4,3.28e+0,
7.900000e-4,3.28e+0,
7.904000e-4,3.28e+0,
7.908000e-4,3.28e+0,
7.912000e-4,3.28e+0,
7.916000e-4,3.36e+0,
7.920000e-4,3.36e+0,
7.924000e-4,3.28e+0,
7.928000e-4,3.28e+0,
7.932000e-4,3.28e+0,
7.936000e-4,3.28e+0,
7.940000e-4,3.36e+0,
7.944000e-4,3.36e+0,
7.948000e-4,3.36e+0,
7.952000e-4,3.36e+0,
7.956000e-4,3.28e+0,
7.960000e-4,3.28e+0,
7.964000e-4,3.28e+0,
7.968000e-4,3.28e+0,
7.972000e-4,3.28e+0,
7.976000e-4,3.28e+0,
7.980000e-4,3.28e+0,
7.984000e-4,3.28e+0,
7.988000e-4,3.28e+0,
7.992000e-4,3.28e+0,
7.996000e-4,3.36e+0,
8.000000e-4,3.36e+0,
8.004000e-4,3.28e+0,
8.008000e-4,3.28e+0,
8.012000e-4,3.36e+0,
8.016000e-4,3.36e+0,
8.020000e-4,3.28e+0,
8.024000e-4,3.28e+0,
8.028000e-4,3.28e+0,
8.032000e-4,3.28e+0,
8.036000e-4,3.28e+0,
8.040000e-4,3.28e+0,
8.044000e-4,3.28e+0,
8.048000e-4,3.28e+0,
8.052000e-4,3.36e+0,
8.056000e-4,3.36e+0,
8.060000e-4,3.28e+0,
8.064000e-4,3.28e+0,
8.068000e-4,3.28e+0,
8.072000e-4,3.28e+0,
8.076000e-4,3.28e+0,
8.080000e-4,3.28e+0,
8.084000e-4,3.28e+0,
8.088000e-4,3.28e+0,
8.092000e-4,3.28e+0,
8.096000e-4,3.28e+0,
8.100000e-4,3.36e+0,
8.104000e-4,3.36e+0,
8.108000e-4,3.36e+0,
8.112000e-4,3.36e+0,
8.116000e-4,3.36e+0,
8.120000e-4,3.36e+0,
8.124000e-4,3.28e+0,
8.128000e-4,3.28e+0,
8.132000e-4,3.28e+0,
8.136000e-4,3.28e+0,
8.140000e-4,3.28e+0,
8.144000e-4,3.28e+0,
8.148000e-4,3.36e+0,
8.152000e-4,3.36e+0,
8.156000e-4,3.36e+0,
8.160000e-4,3.36e+0,
8.164000e-4,3.28e+0,
8.168000e-4,3.28e+0,
8.172000e-4,3.28e+0,
8.176000e-4,3.28e+0,
8.180000e-4,3.36e+0,
8.184000e-4,3.36e+0,
8.188000e-4,3.28e+0,
8.192000e-4,3.28e+0,
8.196000e-4,3.28e+0,
8.200000e-4,3.28e+0,
8.204000e-4,3.36e+0,
8.208000e-4,3.36e+0,
8.212000e-4,3.28e+0,
8.216000e-4,3.28e+0,
8.220000e-4,3.36e+0,
8.224000e-4,3.36e+0,
8.228000e-4,3.28e+0,
8.232000e-4,3.28e+0,
8.236000e-4,3.36e+0,
8.240000e-4,3.36e+0,
8.244000e-4,3.28e+0,
8.248000e-4,3.28e+0,
8.252000e-4,3.36e+0,
8.256000e-4,3.36e+0,
8.260000e-4,3.28e+0,
8.264000e-4,3.28e+0,
8.268000e-4,3.28e+0,
8.272000e-4,3.28e+0,
8.276000e-4,3.36e+0,
8.280000e-4,3.36e+0,
8.284000e-4,3.28e+0,
8.288000e-4,3.28e+0,
8.292000e-4,3.28e+0,
8.296000e-4,3.28e+0,
8.300000e-4,3.28e+0,
8.304000e-4,3.28e+0,
8.308000e-4,3.28e+0,
8.312000e-4,3.28e+0,
8.316000e-4,3.28e+0,
8.320000e-4,3.28e+0,
8.324000e-4,3.28e+0,
8.328000e-4,3.28e+0,
8.332000e-4,3.36e+0,
8.336000e-4,3.36e+0,
8.340000e-4,3.36e+0,
8.344000e-4,3.36e+0,
8.348000e-4,3.28e+0,
8.352000e-4,3.28e+0,
8.356000e-4,3.28e+0,
8.360000e-4,3.28e+0,
8.364000e-4,3.28e+0,
8.368000e-4,3.28e+0,
8.372000e-4,3.28e+0,
8.376000e-4,3.28e+0,
8.380000e-4,3.36e+0,
8.384000e-4,3.36e+0,
8.388000e-4,3.28e+0,
8.392000e-4,3.28e+0,
8.396000e-4,3.28e+0,
8.400000e-4,3.28e+0,
8.404000e-4,3.28e+0,
8.408000e-4,3.28e+0,
8.412000e-4,3.28e+0,
8.416000e-4,3.28e+0,
8.420000e-4,3.28e+0,
8.424000e-4,3.28e+0,
8.428000e-4,3.36e+0,
8.432000e-4,3.36e+0,
8.436000e-4,3.28e+0,
8.440000e-4,3.28e+0,
8.444000e-4,3.36e+0,
8.448000e-4,3.36e+0,
8.452000e-4,3.28e+0,
8.456000e-4,3.28e+0,
8.460000e-4,3.28e+0,
8.464000e-4,3.28e+0,
8.468000e-4,3.36e+0,
8.472000e-4,3.36e+0,
8.476000e-4,3.28e+0,
8.480000e-4,3.28e+0,
8.484000e-4,3.28e+0,
8.488000e-4,3.28e+0,
8.492000e-4,3.36e+0,
8.496000e-4,3.36e+0,
8.500000e-4,3.28e+0,
8.504000e-4,3.28e+0,
8.508000e-4,3.36e+0,
8.512000e-4,3.36e+0,
8.516000e-4,3.36e+0,
8.520000e-4,3.36e+0,
8.524000e-4,3.28e+0,
8.528000e-4,3.28e+0,
8.532000e-4,3.20e+0,
8.536000e-4,3.20e+0,
8.540000e-4,3.28e+0,
8.544000e-4,3.28e+0,
8.548000e-4,3.28e+0,
8.552000e-4,3.28e+0,
8.556000e-4,3.28e+0,
8.560000e-4,3.28e+0,
8.564000e-4,3.36e+0,
8.568000e-4,3.36e+0,
8.572000e-4,3.36e+0,
8.576000e-4,3.36e+0,
8.580000e-4,3.28e+0,
8.584000e-4,3.28e+0,
8.588000e-4,3.28e+0,
8.592000e-4,3.28e+0,
8.596000e-4,3.28e+0,
8.600000e-4,3.28e+0,
8.604000e-4,3.36e+0,
8.608000e-4,3.36e+0,
8.612000e-4,3.28e+0,
8.616000e-4,3.28e+0,
8.620000e-4,3.36e+0,
8.624000e-4,3.36e+0,
8.628000e-4,3.36e+0,
8.632000e-4,3.36e+0,
8.636000e-4,3.28e+0,
8.640000e-4,3.28e+0,
8.644000e-4,3.28e+0,
8.648000e-4,3.28e+0,
8.652000e-4,3.20e+0,
8.656000e-4,3.20e+0,
8.660000e-4,3.20e+0,
8.664000e-4,3.20e+0,
8.668000e-4,3.36e+0,
8.672000e-4,3.36e+0,
8.676000e-4,3.28e+0,
8.680000e-4,3.28e+0,
8.684000e-4,3.28e+0,
8.688000e-4,3.28e+0,
8.692000e-4,3.28e+0,
8.696000e-4,3.28e+0,
8.700000e-4,3.36e+0,
8.704000e-4,3.36e+0,
8.708000e-4,3.28e+0,
8.712000e-4,3.28e+0,
8.716000e-4,3.36e+0,
8.720000e-4,3.36e+0,
8.724000e-4,3.28e+0,
8.728000e-4,3.28e+0,
8.732000e-4,3.28e+0,
8.736000e-4,3.28e+0,
8.740000e-4,3.36e+0,
8.744000e-4,3.36e+0,
8.748000e-4,3.28e+0,
8.752000e-4,3.28e+0,
8.756000e-4,3.36e+0,
8.760000e-4,3.36e+0,
8.764000e-4,3.36e+0,
8.768000e-4,3.36e+0,
8.772000e-4,3.28e+0,
8.776000e-4,3.28e+0,
8.780000e-4,3.28e+0,
8.784000e-4,3.28e+0,
8.788000e-4,3.28e+0,
8.792000e-4,3.28e+0,
8.796000e-4,3.28e+0,
8.800000e-4,3.28e+0,
8.804000e-4,3.28e+0,
8.808000e-4,3.28e+0,
8.812000e-4,3.28e+0,
8.816000e-4,3.28e+0,
8.820000e-4,3.28e+0,
8.824000e-4,3.28e+0,
8.828000e-4,3.28e+0,
8.832000e-4,3.28e+0,
8.836000e-4,3.28e+0,
8.840000e-4,3.28e+0,
8.844000e-4,3.28e+0,
8.848000e-4,3.28e+0,
8.852000e-4,3.36e+0,
8.856000e-4,3.36e+0,
8.860000e-4,3.28e+0,
8.864000e-4,3.28e+0,
8.868000e-4,3.28e+0,
8.872000e-4,3.28e+0,
8.876000e-4,3.28e+0,
8.880000e-4,3.28e+0,
8.884000e-4,3.36e+0,
8.888000e-4,3.36e+0,
8.892000e-4,3.28e+0,
8.896000e-4,3.28e+0,
8.900000e-4,3.28e+0,
8.904000e-4,3.28e+0,
8.908000e-4,3.28e+0,
8.912000e-4,3.28e+0,
8.916000e-4,3.28e+0,
8.920000e-4,3.28e+0,
8.924000e-4,3.28e+0,
8.928000e-4,3.28e+0,
8.932000e-4,3.36e+0,
8.936000e-4,3.36e+0,
8.940000e-4,3.28e+0,
8.944000e-4,3.28e+0,
8.948000e-4,3.28e+0,
8.952000e-4,3.28e+0,
8.956000e-4,3.36e+0,
8.960000e-4,3.36e+0,
8.964000e-4,3.28e+0,
8.968000e-4,3.28e+0,
8.972000e-4,3.28e+0,
8.976000e-4,3.28e+0,
8.980000e-4,3.28e+0,
8.984000e-4,3.28e+0,
8.988000e-4,3.28e+0,
8.992000e-4,3.28e+0,
8.996000e-4,3.36e+0,
9.000000e-4,3.36e+0,
9.004000e-4,3.28e+0,
9.008000e-4,3.28e+0,
9.012000e-4,3.28e+0,
9.016000e-4,3.28e+0,
9.020000e-4,3.28e+0,
9.024000e-4,3.28e+0,
9.028000e-4,3.28e+0,
9.032000e-4,3.28e+0,
9.036000e-4,3.28e+0,
9.040000e-4,3.28e+0,
9.044000e-4,3.28e+0,
9.048000e-4,3.28e+0,
9.052000e-4,3.28e+0,
9.056000e-4,3.28e+0,
9.060000e-4,3.28e+0,
9.064000e-4,3.28e+0,
9.068000e-4,3.28e+0,
9.072000e-4,3.28e+0,
9.076000e-4,3.36e+0,
9.080000e-4,3.36e+0,
9.084000e-4,3.28e+0,
9.088000e-4,3.28e+0,
9.092000e-4,3.28e+0,
9.096000e-4,3.28e+0,
9.100000e-4,3.28e+0,
9.104000e-4,3.28e+0,
9.108000e-4,3.28e+0,
9.112000e-4,3.28e+0,
9.116000e-4,3.28e+0,
9.120000e-4,3.28e+0,
9.124000e-4,3.28e+0,
9.128000e-4,3.28e+0,
9.132000e-4,3.28e+0,
9.136000e-4,3.28e+0,
9.140000e-4,3.36e+0,
9.144000e-4,3.36e+0,
9.148000e-4,3.28e+0,
9.152000e-4,3.28e+0,
9.156000e-4,3.28e+0,
9.160000e-4,3.28e+0,
9.164000e-4,3.28e+0,
9.168000e-4,3.28e+0,
9.172000e-4,3.36e+0,
9.176000e-4,3.36e+0,
9.180000e-4,3.28e+0,
9.184000e-4,3.28e+0,
9.188000e-4,3.28e+0,
9.192000e-4,3.28e+0,
9.196000e-4,3.28e+0,
9.200000e-4,3.28e+0,
9.204000e-4,3.28e+0,
9.208000e-4,3.28e+0,
9.212000e-4,3.28e+0,
9.216000e-4,3.28e+0,
9.220000e-4,3.28e+0,
9.224000e-4,3.28e+0,
9.228000e-4,3.28e+0,
9.232000e-4,3.28e+0,
9.236000e-4,3.28e+0,
9.240000e-4,3.28e+0,
9.244000e-4,3.28e+0,
9.248000e-4,3.28e+0,
9.252000e-4,3.28e+0,
9.256000e-4,3.28e+0,
9.260000e-4,3.28e+0,
9.264000e-4,3.28e+0,
9.268000e-4,3.36e+0,
9.272000e-4,3.36e+0,
9.276000e-4,3.28e+0,
9.280000e-4,3.28e+0,
9.284000e-4,3.28e+0,
9.288000e-4,3.28e+0,
9.292000e-4,3.28e+0,
9.296000e-4,3.28e+0,
9.300000e-4,3.28e+0,
9.304000e-4,3.28e+0,
9.308000e-4,3.20e+0,
9.312000e-4,3.20e+0,
9.316000e-4,3.28e+0,
9.320000e-4,3.28e+0,
9.324000e-4,3.28e+0,
9.328000e-4,3.28e+0,
9.332000e-4,3.28e+0,
9.336000e-4,3.28e+0,
9.340000e-4,3.36e+0,
9.344000e-4,3.36e+0,
9.348000e-4,3.36e+0,
9.352000e-4,3.36e+0,
9.356000e-4,3.36e+0,
9.360000e-4,3.36e+0,
9.364000e-4,3.36e+0,
9.368000e-4,3.36e+0,
9.372000e-4,3.36e+0,
9.376000e-4,3.36e+0,
9.380000e-4,3.28e+0,
9.384000e-4,3.28e+0,
9.388000e-4,3.36e+0,
9.392000e-4,3.36e+0,
9.396000e-4,3.28e+0,
9.400000e-4,3.28e+0,
9.404000e-4,3.28e+0,
9.408000e-4,3.28e+0,
9.412000e-4,3.36e+0,
9.416000e-4,3.36e+0,
9.420000e-4,3.28e+0,
9.424000e-4,3.28e+0,
9.428000e-4,3.20e+0,
9.432000e-4,3.20e+0,
9.436000e-4,3.36e+0,
9.440000e-4,3.36e+0,
9.444000e-4,3.20e+0,
9.448000e-4,3.20e+0,
9.452000e-4,3.28e+0,
9.456000e-4,3.28e+0,
9.460000e-4,3.28e+0,
9.464000e-4,3.28e+0,
9.468000e-4,3.28e+0,
9.472000e-4,3.28e+0,
9.476000e-4,3.28e+0,
9.480000e-4,3.28e+0,
9.484000e-4,3.28e+0,
9.488000e-4,3.28e+0,
9.492000e-4,3.28e+0,
9.496000e-4,3.28e+0,
9.500000e-4,3.36e+0,
9.504000e-4,3.36e+0,
9.508000e-4,3.36e+0,
9.512000e-4,3.36e+0,
9.516000e-4,3.36e+0,
9.520000e-4,3.36e+0,
9.524000e-4,3.28e+0,
9.528000e-4,3.28e+0,
9.532000e-4,3.36e+0,
9.536000e-4,3.36e+0,
9.540000e-4,3.28e+0,
9.544000e-4,3.28e+0,
9.548000e-4,3.28e+0,
9.552000e-4,3.28e+0,
9.556000e-4,3.28e+0,
9.560000e-4,3.28e+0,
9.564000e-4,3.28e+0,
9.568000e-4,3.28e+0,
9.572000e-4,3.36e+0,
9.576000e-4,3.36e+0,
9.580000e-4,3.36e+0,
9.584000e-4,3.36e+0,
9.588000e-4,3.28e+0,
9.592000e-4,3.28e+0,
9.596000e-4,3.28e+0,
9.600000e-4,3.28e+0,
9.604000e-4,3.36e+0,
9.608000e-4,3.36e+0,
9.612000e-4,3.28e+0,
9.616000e-4,3.28e+0,
9.620000e-4,3.28e+0,
9.624000e-4,3.28e+0,
9.628000e-4,3.28e+0,
9.632000e-4,3.28e+0,
9.636000e-4,3.28e+0,
9.640000e-4,3.28e+0,
9.644000e-4,3.28e+0,
9.648000e-4,3.28e+0,
9.652000e-4,3.36e+0,
9.656000e-4,3.36e+0,
9.660000e-4,3.28e+0,
9.664000e-4,3.28e+0,
9.668000e-4,3.28e+0,
9.672000e-4,3.28e+0,
9.676000e-4,3.28e+0,
9.680000e-4,3.28e+0,
9.684000e-4,3.28e+0,
9.688000e-4,3.28e+0,
9.692000e-4,3.28e+0,
9.696000e-4,3.28e+0,
9.700000e-4,3.36e+0,
9.704000e-4,3.36e+0,
9.708000e-4,3.28e+0,
9.712000e-4,3.28e+0,
9.716000e-4,3.28e+0,
9.720000e-4,3.28e+0,
9.724000e-4,3.36e+0,
9.728000e-4,3.36e+0,
9.732000e-4,3.28e+0,
9.736000e-4,3.28e+0,
9.740000e-4,3.28e+0,
9.744000e-4,3.28e+0,
9.748000e-4,3.36e+0,
9.752000e-4,3.36e+0,
9.756000e-4,3.36e+0,
9.760000e-4,3.36e+0,
9.764000e-4,3.36e+0,
9.768000e-4,3.36e+0,
9.772000e-4,3.36e+0,
9.776000e-4,3.36e+0,
9.780000e-4,3.28e+0,
9.784000e-4,3.28e+0,
9.788000e-4,3.28e+0,
9.792000e-4,3.28e+0,
9.796000e-4,3.28e+0,
9.800000e-4,3.28e+0,
9.804000e-4,3.28e+0,
9.808000e-4,3.28e+0,
9.812000e-4,3.36e+0,
9.816000e-4,3.36e+0,
9.820000e-4,3.28e+0,
9.824000e-4,3.28e+0,
9.828000e-4,3.28e+0,
9.832000e-4,3.28e+0,
9.836000e-4,3.36e+0,
9.840000e-4,3.36e+0,
9.844000e-4,3.36e+0,
9.848000e-4,3.36e+0,
9.852000e-4,3.28e+0,
9.856000e-4,3.28e+0,
9.860000e-4,3.36e+0,
9.864000e-4,3.36e+0,
9.868000e-4,3.28e+0,
9.872000e-4,3.28e+0,
9.876000e-4,3.36e+0,
9.880000e-4,3.36e+0,
9.884000e-4,3.28e+0,
9.888000e-4,3.28e+0,
9.892000e-4,3.36e+0,
9.896000e-4,3.36e+0,
9.900000e-4,3.28e+0,
9.904000e-4,3.28e+0,
9.908000e-4,3.36e+0,
9.912000e-4,3.36e+0,
9.916000e-4,3.28e+0,
9.920000e-4,3.28e+0,
9.924000e-4,3.28e+0,
9.928000e-4,3.28e+0,
9.932000e-4,3.36e+0,
9.936000e-4,3.36e+0,
9.940000e-4,3.28e+0,
9.944000e-4,3.28e+0,
9.948000e-4,3.28e+0,
9.952000e-4,3.28e+0,
9.956000e-4,3.28e+0,
9.960000e-4,3.28e+0,
9.964000e-4,3.28e+0,
9.968000e-4,3.28e+0,
9.972000e-4,3.28e+0,
9.976000e-4,3.28e+0,
9.980000e-4,3.36e+0,
9.984000e-4,3.36e+0,
9.988000e-4,3.28e+0,
9.992000e-4,3.28e+0,
9.996000e-4,3.28e+0,
1.000000e-3,3.28e+0,
1.000400e-3,3.28e+0,
1.000800e-3,3.28e+0,
1.001200e-3,3.36e+0,
1.001600e-3,3.36e+0,
1.002000e-3,3.36e+0,
1.002400e-3,3.36e+0,
1.002800e-3,3.28e+0,
1.003200e-3,3.28e+0,
1.003600e-3,3.28e+0,
1.004000e-3,3.28e+0,
1.004400e-3,3.28e+0,
1.004800e-3,3.28e+0,
1.005200e-3,3.28e+0,
1.005600e-3,3.28e+0,
1.006000e-3,3.36e+0,
1.006400e-3,3.36e+0,
1.006800e-3,3.36e+0,
1.007200e-3,3.36e+0,
1.007600e-3,3.36e+0,
1.008000e-3,3.36e+0,
1.008400e-3,3.28e+0,
1.008800e-3,3.28e+0,
1.009200e-3,3.28e+0,
1.009600e-3,3.28e+0,
1.010000e-3,3.28e+0,
1.010400e-3,3.28e+0,
1.010800e-3,3.36e+0,
1.011200e-3,3.36e+0,
1.011600e-3,3.28e+0,
1.012000e-3,3.28e+0,
1.012400e-3,3.28e+0,
1.012800e-3,3.28e+0,
1.013200e-3,3.28e+0,
1.013600e-3,3.28e+0,
1.014000e-3,3.28e+0,
1.014400e-3,3.28e+0,
1.014800e-3,3.28e+0,
1.015200e-3,3.28e+0,
1.015600e-3,3.28e+0,
1.016000e-3,3.28e+0,
1.016400e-3,3.28e+0,
1.016800e-3,3.28e+0,
1.017200e-3,3.28e+0,
1.017600e-3,3.28e+0,
1.018000e-3,3.36e+0,
1.018400e-3,3.36e+0,
1.018800e-3,3.28e+0,
1.019200e-3,3.28e+0,
1.019600e-3,3.28e+0,
1.020000e-3,3.28e+0,
1.020400e-3,3.36e+0,
1.020800e-3,3.36e+0,
1.021200e-3,3.28e+0,
1.021600e-3,3.28e+0,
1.022000e-3,3.28e+0,
1.022400e-3,3.28e+0,
1.022800e-3,3.28e+0,
1.023200e-3,3.28e+0,
1.023600e-3,3.28e+0,
1.024000e-3,3.28e+0,
1.024400e-3,3.36e+0,
1.024800e-3,3.36e+0,
1.025200e-3,3.28e+0,
1.025600e-3,3.28e+0,
1.026000e-3,3.28e+0,
1.026400e-3,3.28e+0,
1.026800e-3,3.36e+0,
1.027200e-3,3.36e+0,
1.027600e-3,3.28e+0,
1.028000e-3,3.28e+0,
1.028400e-3,3.28e+0,
1.028800e-3,3.28e+0,
1.029200e-3,3.28e+0,
1.029600e-3,3.28e+0,
1.030000e-3,3.28e+0,
1.030400e-3,3.28e+0,
1.030800e-3,3.28e+0,
1.031200e-3,3.28e+0,
1.031600e-3,3.36e+0,
1.032000e-3,3.36e+0,
1.032400e-3,3.36e+0,
1.032800e-3,3.36e+0,
1.033200e-3,3.28e+0,
1.033600e-3,3.28e+0,
1.034000e-3,3.28e+0,
1.034400e-3,3.28e+0,
1.034800e-3,3.36e+0,
1.035200e-3,3.36e+0,
1.035600e-3,3.36e+0,
1.036000e-3,3.36e+0,
1.036400e-3,3.28e+0,
1.036800e-3,3.28e+0,
1.037200e-3,3.28e+0,
1.037600e-3,3.28e+0,
1.038000e-3,3.28e+0,
1.038400e-3,3.28e+0,
1.038800e-3,3.36e+0,
1.039200e-3,3.36e+0,
1.039600e-3,3.36e+0,
1.040000e-3,3.36e+0,
1.040400e-3,3.28e+0,
1.040800e-3,3.28e+0,
1.041200e-3,3.28e+0,
1.041600e-3,3.28e+0,
1.042000e-3,3.20e+0,
1.042400e-3,3.20e+0,
1.042800e-3,3.28e+0,
1.043200e-3,3.28e+0,
1.043600e-3,3.28e+0,
1.044000e-3,3.28e+0,
1.044400e-3,3.36e+0,
1.044800e-3,3.36e+0,
1.045200e-3,3.28e+0,
1.045600e-3,3.28e+0,
1.046000e-3,3.36e+0,
1.046400e-3,3.36e+0,
1.046800e-3,3.36e+0,
1.047200e-3,3.36e+0,
1.047600e-3,3.36e+0,
1.048000e-3,3.36e+0,
1.048400e-3,3.28e+0,
1.048800e-3,3.28e+0,
1.049200e-3,3.28e+0,
1.049600e-3,3.28e+0,
1.050000e-3,3.28e+0,
1.050400e-3,3.28e+0,
1.050800e-3,3.36e+0,
1.051200e-3,3.36e+0,
1.051600e-3,3.28e+0,
1.052000e-3,3.28e+0,
1.052400e-3,3.28e+0,
1.052800e-3,3.28e+0,
1.053200e-3,3.28e+0,
1.053600e-3,3.28e+0,
1.054000e-3,3.28e+0,
1.054400e-3,3.28e+0,
1.054800e-3,3.28e+0,
1.055200e-3,3.28e+0,
1.055600e-3,3.28e+0,
1.056000e-3,3.28e+0,
1.056400e-3,3.36e+0,
1.056800e-3,3.36e+0,
1.057200e-3,3.36e+0,
1.057600e-3,3.36e+0,
1.058000e-3,3.28e+0,
1.058400e-3,3.28e+0,
1.058800e-3,3.28e+0,
1.059200e-3,3.28e+0,
1.059600e-3,3.36e+0,
1.060000e-3,3.36e+0,
1.060400e-3,3.28e+0,
1.060800e-3,3.28e+0,
1.061200e-3,3.28e+0,
1.061600e-3,3.28e+0,
1.062000e-3,3.28e+0,
1.062400e-3,3.28e+0,
1.062800e-3,3.28e+0,
1.063200e-3,3.28e+0,
1.063600e-3,3.28e+0,
1.064000e-3,3.28e+0,
1.064400e-3,3.28e+0,
1.064800e-3,3.28e+0,
1.065200e-3,3.28e+0,
1.065600e-3,3.28e+0,
1.066000e-3,3.28e+0,
1.066400e-3,3.28e+0,
1.066800e-3,3.28e+0,
1.067200e-3,3.28e+0,
1.067600e-3,3.28e+0,
1.068000e-3,3.28e+0,
1.068400e-3,3.28e+0,
1.068800e-3,3.28e+0,
1.069200e-3,3.36e+0,
1.069600e-3,3.36e+0,
1.070000e-3,3.28e+0,
1.070400e-3,3.28e+0,
1.070800e-3,3.36e+0,
1.071200e-3,3.36e+0,
1.071600e-3,3.28e+0,
1.072000e-3,3.28e+0,
1.072400e-3,3.28e+0,
1.072800e-3,3.28e+0,
1.073200e-3,3.36e+0,
1.073600e-3,3.36e+0,
1.074000e-3,3.36e+0,
1.074400e-3,3.36e+0,
1.074800e-3,3.36e+0,
1.075200e-3,3.36e+0,
1.075600e-3,3.28e+0,
1.076000e-3,3.28e+0,
1.076400e-3,3.36e+0,
1.076800e-3,3.36e+0,
1.077200e-3,3.28e+0,
1.077600e-3,3.28e+0,
1.078000e-3,3.36e+0,
1.078400e-3,3.36e+0,
1.078800e-3,3.28e+0,
1.079200e-3,3.28e+0,
1.079600e-3,3.28e+0,
1.080000e-3,3.28e+0,
1.080400e-3,3.36e+0,
1.080800e-3,3.36e+0,
1.081200e-3,3.36e+0,
1.081600e-3,3.36e+0,
1.082000e-3,3.28e+0,
1.082400e-3,3.28e+0,
1.082800e-3,3.36e+0,
1.083200e-3,3.36e+0,
1.083600e-3,3.28e+0,
1.084000e-3,3.28e+0,
1.084400e-3,3.28e+0,
1.084800e-3,3.28e+0,
1.085200e-3,3.36e+0,
1.085600e-3,3.36e+0,
1.086000e-3,3.28e+0,
1.086400e-3,3.28e+0,
1.086800e-3,3.28e+0,
1.087200e-3,3.28e+0,
1.087600e-3,3.28e+0,
1.088000e-3,3.28e+0,
1.088400e-3,3.20e+0,
1.088800e-3,3.20e+0,
1.089200e-3,3.28e+0,
1.089600e-3,3.28e+0,
1.090000e-3,3.28e+0,
1.090400e-3,3.28e+0,
1.090800e-3,3.28e+0,
1.091200e-3,3.28e+0,
1.091600e-3,3.28e+0,
1.092000e-3,3.28e+0,
1.092400e-3,3.28e+0,
1.092800e-3,3.28e+0,
1.093200e-3,3.28e+0,
1.093600e-3,3.28e+0,
1.094000e-3,3.36e+0,
1.094400e-3,3.36e+0,
1.094800e-3,3.36e+0,
1.095200e-3,3.36e+0,
1.095600e-3,3.36e+0,
1.096000e-3,3.36e+0,
1.096400e-3,3.36e+0,
1.096800e-3,3.36e+0,
1.097200e-3,3.36e+0,
1.097600e-3,3.36e+0,
1.098000e-3,3.28e+0,
1.098400e-3,3.28e+0,
1.098800e-3,3.36e+0,
1.099200e-3,3.36e+0,
1.099600e-3,3.28e+0,
1.100000e-3,3.28e+0,
1.100400e-3,3.28e+0,
1.100800e-3,3.28e+0,
1.101200e-3,3.36e+0,
1.101600e-3,3.36e+0,
1.102000e-3,3.36e+0,
1.102400e-3,3.36e+0,
1.102800e-3,3.28e+0,
1.103200e-3,3.28e+0,
1.103600e-3,3.28e+0,
1.104000e-3,3.28e+0,
1.104400e-3,3.28e+0,
1.104800e-3,3.28e+0,
1.105200e-3,3.28e+0,
1.105600e-3,3.28e+0,
1.106000e-3,3.28e+0,
1.106400e-3,3.28e+0,
1.106800e-3,3.28e+0,
1.107200e-3,3.28e+0,
1.107600e-3,3.28e+0,
1.108000e-3,3.28e+0,
1.108400e-3,3.28e+0,
1.108800e-3,3.28e+0,
1.109200e-3,3.28e+0,
1.109600e-3,3.28e+0,
1.110000e-3,3.28e+0,
1.110400e-3,3.28e+0,
1.110800e-3,3.28e+0,
1.111200e-3,3.28e+0,
1.111600e-3,3.28e+0,
1.112000e-3,3.28e+0,
1.112400e-3,3.28e+0,
1.112800e-3,3.28e+0,
1.113200e-3,3.28e+0,
1.113600e-3,3.28e+0,
1.114000e-3,3.28e+0,
1.114400e-3,3.28e+0,
1.114800e-3,3.28e+0,
1.115200e-3,3.28e+0,
1.115600e-3,3.36e+0,
1.116000e-3,3.36e+0,
1.116400e-3,3.36e+0,
1.116800e-3,3.36e+0,
1.117200e-3,3.28e+0,
1.117600e-3,3.28e+0,
1.118000e-3,3.28e+0,
1.118400e-3,3.28e+0,
1.118800e-3,3.28e+0,
1.119200e-3,3.28e+0,
1.119600e-3,3.28e+0,
1.120000e-3,3.28e+0,
1.120400e-3,3.36e+0,
1.120800e-3,3.36e+0,
1.121200e-3,3.28e+0,
1.121600e-3,3.28e+0,
1.122000e-3,3.36e+0,
1.122400e-3,3.36e+0,
1.122800e-3,3.28e+0,
1.123200e-3,3.28e+0,
1.123600e-3,3.28e+0,
1.124000e-3,3.28e+0,
1.124400e-3,3.28e+0,
1.124800e-3,3.28e+0,
1.125200e-3,3.28e+0,
1.125600e-3,3.28e+0,
1.126000e-3,3.28e+0,
1.126400e-3,3.28e+0,
1.126800e-3,3.28e+0,
1.127200e-3,3.28e+0,
1.127600e-3,3.28e+0,
1.128000e-3,3.28e+0,
1.128400e-3,3.28e+0,
1.128800e-3,3.28e+0,
1.129200e-3,3.28e+0,
1.129600e-3,3.28e+0,
1.130000e-3,3.36e+0,
1.130400e-3,3.36e+0,
1.130800e-3,3.36e+0,
1.131200e-3,3.36e+0,
1.131600e-3,3.28e+0,
1.132000e-3,3.28e+0,
1.132400e-3,3.28e+0,
1.132800e-3,3.28e+0,
1.133200e-3,3.36e+0,
1.133600e-3,3.36e+0,
1.134000e-3,3.36e+0,
1.134400e-3,3.36e+0,
1.134800e-3,3.36e+0,
1.135200e-3,3.36e+0,
1.135600e-3,3.28e+0,
1.136000e-3,3.28e+0,
1.136400e-3,3.28e+0,
1.136800e-3,3.28e+0,
1.137200e-3,3.28e+0,
1.137600e-3,3.28e+0,
1.138000e-3,3.36e+0,
1.138400e-3,3.36e+0,
1.138800e-3,3.28e+0,
1.139200e-3,3.28e+0,
1.139600e-3,3.36e+0,
1.140000e-3,3.36e+0,
1.140400e-3,3.28e+0,
1.140800e-3,3.28e+0,
1.141200e-3,3.36e+0,
1.141600e-3,3.36e+0,
1.142000e-3,3.28e+0,
1.142400e-3,3.28e+0,
1.142800e-3,3.28e+0,
1.143200e-3,3.28e+0,
1.143600e-3,3.28e+0,
1.144000e-3,3.28e+0,
1.144400e-3,3.28e+0,
1.144800e-3,3.28e+0,
1.145200e-3,3.28e+0,
1.145600e-3,3.28e+0,
1.146000e-3,3.36e+0,
1.146400e-3,3.36e+0,
1.146800e-3,3.28e+0,
1.147200e-3,3.28e+0,
1.147600e-3,3.28e+0,
1.148000e-3,3.28e+0,
1.148400e-3,3.28e+0,
1.148800e-3,3.28e+0,
1.149200e-3,3.36e+0,
1.149600e-3,3.36e+0,
1.150000e-3,3.36e+0,
1.150400e-3,3.36e+0,
1.150800e-3,3.28e+0,
1.151200e-3,3.28e+0,
1.151600e-3,3.28e+0,
1.152000e-3,3.28e+0,
1.152400e-3,3.36e+0,
1.152800e-3,3.36e+0,
1.153200e-3,3.28e+0,
1.153600e-3,3.28e+0,
1.154000e-3,3.28e+0,
1.154400e-3,3.28e+0,
1.154800e-3,3.36e+0,
1.155200e-3,3.36e+0,
1.155600e-3,3.28e+0,
1.156000e-3,3.28e+0,
1.156400e-3,3.28e+0,
1.156800e-3,3.28e+0,
1.157200e-3,3.28e+0,
1.157600e-3,3.28e+0,
1.158000e-3,3.28e+0,
1.158400e-3,3.28e+0,
1.158800e-3,3.36e+0,
1.159200e-3,3.36e+0,
1.159600e-3,3.36e+0,
1.160000e-3,3.36e+0,
1.160400e-3,3.36e+0,
1.160800e-3,3.36e+0,
1.161200e-3,3.28e+0,
1.161600e-3,3.28e+0,
1.162000e-3,3.36e+0,
1.162400e-3,3.36e+0,
1.162800e-3,3.28e+0,
1.163200e-3,3.28e+0,
1.163600e-3,3.28e+0,
1.164000e-3,3.28e+0,
1.164400e-3,3.28e+0,
1.164800e-3,3.28e+0,
1.165200e-3,3.28e+0,
1.165600e-3,3.28e+0,
1.166000e-3,3.28e+0,
1.166400e-3,3.28e+0,
1.166800e-3,3.36e+0,
1.167200e-3,3.36e+0,
1.167600e-3,3.28e+0,
1.168000e-3,3.28e+0,
1.168400e-3,3.36e+0,
1.168800e-3,3.36e+0,
1.169200e-3,3.28e+0,
1.169600e-3,3.28e+0,
1.170000e-3,3.36e+0,
1.170400e-3,3.36e+0,
1.170800e-3,3.20e+0,
1.171200e-3,3.20e+0,
1.171600e-3,3.36e+0,
1.172000e-3,3.36e+0,
1.172400e-3,3.28e+0,
1.172800e-3,3.28e+0,
1.173200e-3,3.36e+0,
1.173600e-3,3.36e+0,
1.174000e-3,3.28e+0,
1.174400e-3,3.28e+0,
1.174800e-3,3.36e+0,
1.175200e-3,3.36e+0,
1.175600e-3,3.36e+0,
1.176000e-3,3.36e+0,
1.176400e-3,3.28e+0,
1.176800e-3,3.28e+0,
1.177200e-3,3.28e+0,
1.177600e-3,3.28e+0,
1.178000e-3,3.28e+0,
1.178400e-3,3.28e+0,
1.178800e-3,3.28e+0,
1.179200e-3,3.28e+0,
1.179600e-3,3.28e+0,
1.180000e-3,3.28e+0,
1.180400e-3,3.36e+0,
1.180800e-3,3.36e+0,
1.181200e-3,3.28e+0,
1.181600e-3,3.28e+0,
1.182000e-3,3.28e+0,
1.182400e-3,3.28e+0,
1.182800e-3,3.36e+0,
1.183200e-3,3.36e+0,
1.183600e-3,3.28e+0,
1.184000e-3,3.28e+0,
1.184400e-3,3.36e+0,
1.184800e-3,3.36e+0,
1.185200e-3,3.28e+0,
1.185600e-3,3.28e+0,
1.186000e-3,3.28e+0,
1.186400e-3,3.28e+0,
1.186800e-3,3.36e+0,
1.187200e-3,3.36e+0,
1.187600e-3,3.28e+0,
1.188000e-3,3.28e+0,
1.188400e-3,3.28e+0,
1.188800e-3,3.28e+0,
1.189200e-3,3.28e+0,
1.189600e-3,3.28e+0,
1.190000e-3,3.28e+0,
1.190400e-3,3.28e+0,
1.190800e-3,3.36e+0,
1.191200e-3,3.36e+0,
1.191600e-3,3.28e+0,
1.192000e-3,3.28e+0,
1.192400e-3,3.36e+0,
1.192800e-3,3.36e+0,
1.193200e-3,3.28e+0,
1.193600e-3,3.28e+0,
1.194000e-3,3.28e+0,
1.194400e-3,3.28e+0,
1.194800e-3,3.28e+0,
1.195200e-3,3.28e+0,
1.195600e-3,3.36e+0,
1.196000e-3,3.36e+0,
1.196400e-3,3.28e+0,
1.196800e-3,3.28e+0,
1.197200e-3,3.36e+0,
1.197600e-3,3.36e+0,
1.198000e-3,3.36e+0,
1.198400e-3,3.36e+0,
1.198800e-3,3.28e+0,
1.199200e-3,3.28e+0,
1.199600e-3,3.28e+0,
